Time,FZ,C3,CZ,C4,PZ,PO7,OZ,PO8,AccX,AccY,AccZ,Gyro1,Gyro2,Gyro3,Battery,Counter,Validation
44642.7709726,261544.84375,269312.34375,278604.40625,265851.46875,248472.90625,203594.625,253599.859375,231583.21875,-0.201171875,0.96435546875,-0.12158203125,0.8239745497703552,0.0610351525247097,0.6713866591453552,80.0,766690.0,1.0
44642.7710092,260611.875,266902.46875,276874.8125,263281.5625,246281.015625,202508.0625,252966.59375,230170.5,-0.20068359375,0.96484375,-0.11962890625,0.6713866591453552,0.03051757626235485,0.7324218153953552,80.0,766691.0,1.0
44642.7767873,259724.25,264392.375,275036.09375,260066.671875,244230.015625,201429.734375,252556.9375,228278.828125,-0.197998046875,0.96728515625,-0.122802734375,0.5187987685203552,-0.1525878757238388,0.7019042372703552,80.0,766692.0,1.0
44642.7836002,260082.140625,265218.3125,275585.03125,260587.203125,245107.984375,201828.125,252918.765625,228478.921875,-0.1982421875,0.968505859375,-0.121337890625,0.5798339247703552,-0.2136230319738388,0.7629393935203552,80.0,766693.0,1.0
44642.7836443,261198.75,268202.34375,277740.5625,264060.46875,247669.234375,203132.03125,253555.078125,230434.15625,-0.197265625,0.96826171875,-0.120849609375,0.3967284858226776,-0.1220703050494194,0.7934569716453552,80.0,766694.0,1.0
44642.7893131,261532.234375,269232.21875,278522.78125,265700.28125,248390.921875,203542.859375,253593.78125,231446.609375,-0.19580078125,0.968505859375,-0.120849609375,0.2441406100988388,-0.1220703050494194,0.8544921278953552,80.0,766695.0,1.0
44642.7985113,260595.515625,266833.875,276798.375,263147.5625,246206.625,202455.40625,252958.8125,230040.5,-0.194091796875,0.97021484375,-0.122314453125,0.0915527269244194,-0.0915527269244194,0.8239745497703552,80.0,766696.0,1.0
44642.7985609,259700.734375,264309.21875,274945.96875,259915.3125,244140.421875,201370.0,252545.75,228141.859375,-0.192138671875,0.969482421875,-0.120849609375,-0.03051757626235485,-0.03051757626235485,0.8850097060203552,80.0,766697.0,1.0
44642.8011317,260062.203125,265127.375,275493.84375,260426.453125,245016.53125,201774.578125,252917.59375,228347.578125,-0.19189453125,0.968017578125,-0.12060546875,-0.1525878757238388,0.1220703050494194,0.9460448622703552,80.0,766698.0,1.0
44642.8011758,261177.734375,268114.90625,277654.53125,263908.21875,247582.328125,203078.390625,253550.25,230304.15625,-0.19140625,0.966064453125,-0.123779296875,-0.2441406100988388,0.1525878757238388,1.0681151151657104,80.0,766699.0,1.0
44642.8092874,261519.71875,269170.1875,278456.09375,265577.71875,248327.09375,203499.859375,253590.296875,231337.265625,-0.195068359375,0.967529296875,-0.116455078125,-0.3356933295726776,0.2136230319738388,1.0375975370407104,80.0,766700.0,1.0
44642.8118969,260582.546875,266776.40625,276733.46875,263029.53125,246146.71875,202419.28125,252955.15625,229941.4375,-0.19189453125,0.964111328125,-0.119140625,-0.3356933295726776,0.2441406100988388,1.0681151151657104,80.0,766701.0,1.0
44642.8180497,259671.21875,264224.46875,274856.375,259753.296875,244051.28125,201322.171875,252532.53125,228017.9375,-0.1943359375,0.96533203125,-0.11962890625,-0.3662109076976776,0.2136230319738388,1.1291502714157104,80.0,766702.0,1.0
44642.8273968,260021.796875,265012.9375,275378.78125,260216.96875,244895.640625,201705.734375,252891.9375,228189.6875,-0.194580078125,0.965087890625,-0.11865234375,-0.3967284858226776,0.2136230319738388,1.2512205839157104,80.0,766703.0,1.0
44642.8274422,261153.6875,268011.65625,277551.8125,263715.0,247478.796875,203024.125,253544.4375,230161.203125,-0.19580078125,0.96337890625,-0.1201171875,-0.5187987685203552,0.2441406100988388,1.1596678495407104,80.0,766704.0,1.0
44642.8298821,261511.3125,269097.9375,278380.34375,265433.59375,248256.71875,203463.5625,253600.40625,231221.03125,-0.1982421875,0.95849609375,-0.117919921875,-0.5187987685203552,0.2746581733226776,1.0070799589157104,80.0,766705.0,1.0
44642.8299269,260570.296875,266712.75,276666.34375,262901.59375,246081.546875,202378.609375,252956.765625,229828.34375,-0.197998046875,0.9599609375,-0.117919921875,-0.5798339247703552,0.1831054538488388,0.9460448622703552,80.0,766706.0,1.0
44642.8355341,259657.546875,264151.6875,274783.5,259615.609375,243977.34375,201276.84375,252534.484375,227901.796875,-0.199951171875,0.9599609375,-0.119140625,-0.4882812201976776,0.0915527269244194,0.9155272841453552,80.0,766707.0,1.0
44642.8423944,259997.65625,264918.625,275288.125,260058.0,244803.921875,201649.046875,252888.0,228060.484375,-0.200439453125,0.95703125,-0.120361328125,-0.5493163466453552,0.0915527269244194,0.8850097060203552,80.0,766708.0,1.0
44642.8424385,261121.859375,267913.03125,277460.96875,263567.59375,247389.828125,202955.09375,253526.109375,230029.953125,-0.201171875,0.956298828125,-0.12060546875,-0.3662109076976776,0.03051757626235485,0.8239745497703552,80.0,766709.0,1.0
44642.8442885,261497.359375,269040.625,278322.15625,265345.78125,248204.875,203409.734375,253586.453125,231124.46875,-0.202392578125,0.957275390625,-0.123779296875,-0.2136230319738388,-0.1220703050494194,0.6408690810203552,80.0,766710.0,1.0
44642.8555361,260576.109375,266694.21875,276643.4375,262878.0625,246065.359375,202346.59375,252955.515625,229778.265625,-0.201171875,0.957275390625,-0.120849609375,-0.0915527269244194,-0.1831054538488388,0.5798339247703552,80.0,766711.0,1.0
44642.8586926,259650.484375,264119.65625,274755.0625,259597.46875,243954.109375,201234.828125,252520.1875,227856.109375,-0.200439453125,0.959716796875,-0.1201171875,-0.2136230319738388,-0.1831054538488388,0.4272460639476776,80.0,766712.0,1.0
44642.8587368,260008.5625,264897.34375,275282.21875,260066.21875,244804.71875,201630.8125,252897.484375,228040.28125,-0.198974609375,0.96142578125,-0.120361328125,-0.03051757626235485,-0.3051757514476776,0.3967284858226776,80.0,766713.0,1.0
44642.8604586,261149.65625,267929.375,277484.9375,263623.09375,247422.296875,202957.78125,253549.625,230045.953125,-0.20068359375,0.96240234375,-0.119873046875,0.0,-0.3356933295726776,0.3967284858226776,80.0,766714.0,1.0
44642.8717847,261519.359375,269080.5,278368.09375,265468.5625,248268.796875,203416.984375,253598.96875,231180.265625,-0.198974609375,0.960693359375,-0.121826171875,0.03051757626235485,-0.5187987685203552,0.3356933295726776,80.0,766715.0,1.0
44642.8748775,260604.0,266762.0,276710.6875,263065.125,246161.921875,202364.03125,252967.75,229872.765625,-0.198486328125,0.96044921875,-0.124755859375,0.0610351525247097,-0.6103515028953552,0.2746581733226776,80.0,766716.0,1.0
44642.8749216,259700.375,264214.53125,274849.65625,259830.640625,244074.09375,201275.59375,252551.5625,227993.4375,-0.19775390625,0.96142578125,-0.1201171875,0.0,-0.5798339247703552,0.2441406100988388,80.0,766717.0,1.0
44642.8806685,260055.234375,264988.71875,275374.5,260309.40625,244921.390625,201660.046875,252917.875,228184.328125,-0.198486328125,0.963623046875,-0.120361328125,0.1220703050494194,-0.5798339247703552,0.2746581733226776,80.0,766718.0,1.0
44642.899878,261214.84375,268052.59375,277615.65625,263932.625,247584.734375,203009.28125,253579.125,230237.828125,-0.19873046875,0.96240234375,-0.124755859375,0.1831054538488388,-0.7019042372703552,0.2136230319738388,80.0,766719.0,1.0
44642.8999222,261617.609375,269268.0,278558.53125,265863.71875,248493.65625,203510.046875,253659.5,231435.34375,-0.1982421875,0.96142578125,-0.12353515625,0.2136230319738388,-0.7324218153953552,0.3356933295726776,80.0,766720.0,1.0
44642.9017846,260691.359375,266961.125,276908.90625,263473.78125,246389.90625,202455.21875,253016.65625,230138.84375,-0.19775390625,0.96435546875,-0.1240234375,0.2136230319738388,-0.6713866591453552,0.3051757514476776,80.0,766721.0,1.0
44642.9049049,259756.609375,264378.9375,275016.25,260186.125,244263.8125,201344.796875,252574.546875,228230.359375,-0.19677734375,0.96533203125,-0.12255859375,0.3051757514476776,-0.7324218153953552,0.3356933295726776,80.0,766722.0,1.0
44642.9049492,260085.453125,265112.34375,275506.90625,260598.734375,245069.359375,201711.546875,252925.015625,228388.609375,-0.199462890625,0.966552734375,-0.1220703125,0.2136230319738388,-0.8850097060203552,0.3967284858226776,80.0,766723.0,1.0
44642.9069064,261231.734375,268155.78125,277722.75,264176.4375,247704.28125,203049.875,253580.90625,230413.6875,-0.19873046875,0.9658203125,-0.120361328125,0.0915527269244194,-0.9460448622703552,0.3967284858226776,80.0,766724.0,1.0
44642.9092993,261635.40625,269374.46875,278660.375,266091.09375,248606.75,203551.53125,253659.234375,231601.09375,-0.19873046875,0.96435546875,-0.119140625,0.0610351525247097,-1.0375975370407104,0.4577636420726776,80.0,766725.0,1.0
44642.9118049,260735.25,267096.46875,277035.5,263717.0625,246524.734375,202527.015625,253040.796875,230330.0,-0.197265625,0.9638671875,-0.122314453125,0.03051757626235485,-1.0986326932907104,0.4882812201976776,80.0,766726.0,1.0
44642.9274488,259795.046875,264492.125,275124.78125,260392.296875,244374.40625,201409.609375,252596.546875,228403.28125,-0.1962890625,0.9658203125,-0.1201171875,-0.03051757626235485,-1.0681151151657104,0.3967284858226776,80.0,766727.0,1.0
44642.9299926,260115.40625,265198.1875,275594.53125,260762.4375,245155.109375,201766.078125,252942.71875,228532.296875,-0.19677734375,0.963134765625,-0.119873046875,-0.03051757626235485,-1.1901854276657104,0.4272460639476776,80.0,766728.0,1.0
44642.9300405,261268.03125,268248.9375,277817.71875,264341.03125,247797.984375,203110.125,253604.0625,230556.46875,-0.19775390625,0.9619140625,-0.119873046875,-0.0610351525247097,-1.1901854276657104,0.4577636420726776,80.0,766729.0,1.0
44642.9317989,261683.328125,269493.84375,278775.71875,266285.8125,248724.765625,203624.84375,253691.6875,231760.328125,-0.198486328125,0.9609375,-0.12158203125,-0.1525878757238388,-1.1901854276657104,0.4272460639476776,80.0,766730.0,1.0
44642.9342579,260783.53125,267231.125,277155.5625,263925.375,246648.828125,202603.546875,253073.25,230497.28125,-0.197509765625,0.9619140625,-0.122802734375,-0.1831054538488388,-1.2512205839157104,0.3662109076976776,80.0,766731.0,1.0
44642.9392205,259832.15625,264607.375,275229.03125,260577.625,244479.453125,201472.203125,252621.3125,228554.28125,-0.196044921875,0.960693359375,-0.1220703125,-0.1525878757238388,-1.3122557401657104,0.4882812201976776,80.0,766732.0,1.0
44642.9423448,260137.296875,265276.875,275672.3125,260911.296875,245231.640625,201805.234375,252952.5625,228658.0,-0.195556640625,0.9619140625,-0.12109375,-0.2136230319738388,-1.3122557401657104,0.4577636420726776,80.0,766733.0,1.0
44642.9423898,261288.859375,268320.53125,277892.1875,264489.375,247873.796875,203141.78125,253606.125,230678.15625,-0.197509765625,0.96435546875,-0.12353515625,-0.1525878757238388,-1.1901854276657104,0.5798339247703552,80.0,766734.0,1.0
44642.9504802,261706.03125,269580.28125,278863.6875,266462.21875,248816.59375,203658.203125,253689.71875,231895.421875,-0.200439453125,0.96435546875,-0.12158203125,-0.2746581733226776,-1.2512205839157104,0.4577636420726776,80.0,766735.0,1.0
44642.9573949,260814.203125,267332.40625,277258.03125,264126.09375,246754.328125,202643.515625,253073.078125,230645.609375,-0.1982421875,0.9638671875,-0.1220703125,-0.3967284858226776,-1.1901854276657104,0.4577636420726776,80.0,766736.0,1.0
44642.9574392,259869.34375,264706.09375,275331.84375,260771.640625,244581.46875,201520.203125,252630.875,228704.046875,-0.196533203125,0.962646484375,-0.1201171875,-0.3967284858226776,-1.1291502714157104,0.5187987685203552,80.0,766737.0,1.0
44642.9599028,260176.90625,265367.0,275771.53125,261090.109375,245328.109375,201858.171875,252971.0625,228806.421875,-0.195068359375,0.964599609375,-0.12060546875,-0.3967284858226776,-1.1901854276657104,0.4882812201976776,80.0,766738.0,1.0
44642.959947,261314.25,268396.53125,277975.96875,264650.21875,247957.65625,203180.578125,253616.140625,230807.25,-0.1943359375,0.961669921875,-0.12109375,-0.4272460639476776,-1.1901854276657104,0.4577636420726776,80.0,766739.0,1.0
44642.9732245,261739.65625,269681.9375,278962.125,266643.625,248918.515625,203709.96875,253707.15625,232038.296875,-0.194580078125,0.96142578125,-0.123046875,-0.3662109076976776,-1.2817381620407104,0.3662109076976776,80.0,766740.0,1.0
44642.9774151,260846.484375,267439.625,277361.28125,264320.75,246862.15625,202694.125,253088.015625,230792.765625,-0.195068359375,0.960693359375,-0.12255859375,-0.4272460639476776,-1.1596678495407104,0.3356933295726776,80.0,766741.0,1.0
44642.9774605,259883.203125,264783.34375,275412.65625,260940.453125,244664.359375,201546.21875,252627.296875,228830.015625,-0.195556640625,0.958251953125,-0.11962890625,-0.4272460639476776,-1.1291502714157104,0.3356933295726776,80.0,766742.0,1.0
44642.9960908,260195.859375,265443.59375,275855.21875,261257.03125,245410.90625,201888.203125,252975.453125,228934.71875,-0.197509765625,0.959716796875,-0.119384765625,-0.4577636420726776,-1.0375975370407104,0.2136230319738388,80.0,766743.0,1.0
44642.9961337,261355.5625,268506.4375,278090.84375,264857.53125,248073.625,203238.609375,253642.0625,230970.0625,-0.196044921875,0.95947265625,-0.120849609375,-0.4882812201976776,-0.9765624403953552,0.2441406100988388,80.0,766744.0,1.0
44642.9992254,261772.203125,269795.75,279078.4375,266868.9375,249039.65625,203760.125,253721.015625,232201.828125,-0.19677734375,0.96337890625,-0.121337890625,-0.5798339247703552,-1.0375975370407104,0.2136230319738388,80.0,766745.0,1.0
44642.9992689,260882.78125,267569.4375,277486.90625,264562.6875,246993.671875,202753.84375,253108.125,230970.0625,-0.196044921875,0.96337890625,-0.119384765625,-0.4272460639476776,-0.9765624403953552,0.2441406100988388,80.0,766746.0,1.0
44642.9992809,259917.265625,264909.59375,275528.09375,261161.375,244784.34375,201613.28125,252653.84375,229006.15625,-0.1953125,0.964111328125,-0.11767578125,-0.4882812201976776,-0.9460448622703552,0.3051757514476776,80.0,766747.0,1.0
44643.002497,260207.125,265525.3125,275930.40625,261409.125,245490.203125,201935.421875,252992.171875,229072.3125,-0.195556640625,0.96337890625,-0.117431640625,-0.5187987685203552,-0.9155272841453552,0.3662109076976776,80.0,766748.0,1.0
44643.0025429,261350.28125,268553.0,278133.3125,264951.875,248121.265625,203264.8125,253646.09375,231066.53125,-0.19677734375,0.967041015625,-0.1181640625,-0.6713866591453552,-0.9155272841453552,0.3356933295726776,80.0,766749.0,1.0
44643.0080425,261786.140625,269861.375,279134.6875,266966.5625,249099.5625,203803.9375,253740.953125,232305.171875,-0.19580078125,0.968994140625,-0.121337890625,-0.7019042372703552,-0.8544921278953552,0.2746581733226776,80.0,766750.0,1.0
44643.0174396,260906.375,267646.5,277553.875,264661.9375,247061.359375,202812.9375,253139.15625,231080.484375,-0.197021484375,0.967041015625,-0.12060546875,-0.7629393935203552,-0.8544921278953552,0.3967284858226776,80.0,766751.0,1.0
44643.0174866,259917.984375,264937.03125,275556.6875,261198.109375,244804.625,201640.109375,252661.53125,229066.5,-0.198486328125,0.967529296875,-0.116943359375,-0.8850097060203552,-0.7934569716453552,0.3662109076976776,80.0,766752.0,1.0
44643.0235478,260186.125,265509.78125,275919.5,261381.40625,245463.65625,201934.96875,252979.65625,229084.015625,-0.197998046875,0.966552734375,-0.116943359375,-0.9460448622703552,-0.8239745497703552,0.4272460639476776,80.0,766753.0,1.0
44643.0235963,261329.71875,268539.9375,278122.59375,264911.53125,248095.078125,203268.46875,253641.703125,231069.75,-0.19775390625,0.96826171875,-0.114501953125,-1.0681151151657104,-0.8239745497703552,0.4272460639476776,80.0,766754.0,1.0
44643.0300205,261767.375,269856.375,279126.71875,266933.40625,249083.203125,203804.640625,253734.59375,232304.828125,-0.19873046875,0.96923828125,-0.1162109375,-1.1291502714157104,-0.7934569716453552,0.4882812201976776,80.0,766755.0,1.0
44643.0300676,260884.75,267636.3125,277538.3125,264632.96875,247041.59375,202798.375,253119.125,231068.046875,-0.197998046875,0.968994140625,-0.11328125,-1.2512205839157104,-0.8544921278953552,0.5798339247703552,80.0,766756.0,1.0
44643.0380594,259900.46875,264926.21875,275545.4375,261169.0625,244783.265625,201632.328125,252646.96875,229060.953125,-0.198486328125,0.968994140625,-0.113525390625,-1.3427733182907104,-0.8544921278953552,0.5187987685203552,80.0,766757.0,1.0
44643.0423542,260159.46875,265472.9375,275893.84375,261329.015625,245425.828125,201917.0,252960.515625,229067.21875,-0.19873046875,0.9697265625,-0.11474609375,-1.4648436307907104,-0.7934569716453552,0.5798339247703552,80.0,766758.0,1.0
44643.042398,261298.796875,268489.96875,278087.1875,264848.15625,248049.75,203238.4375,253615.6875,231037.203125,-0.198974609375,0.9677734375,-0.11328125,-1.4953612089157104,-0.7934569716453552,0.5493163466453552,80.0,766759.0,1.0
44643.053031,261753.515625,269836.1875,279117.6875,266905.78125,249065.40625,203794.09375,253723.328125,232290.96875,-0.197998046875,0.966796875,-0.11474609375,-1.5258787870407104,-0.7629393935203552,0.6408690810203552,80.0,766760.0,1.0
44643.0587357,260885.640625,267642.75,277550.125,264632.5,247042.75,202803.46875,253118.859375,231070.640625,-0.1982421875,0.96630859375,-0.114501953125,-1.4953612089157104,-0.7934569716453552,0.5493163466453552,80.0,766761.0,1.0
44643.0587814,259893.40625,264915.40625,275538.375,261143.671875,244767.265625,201619.453125,252637.671875,229042.984375,-0.196533203125,0.964599609375,-0.113525390625,-1.5869139432907104,-0.7629393935203552,0.5798339247703552,80.0,766762.0,1.0
44643.0605499,260153.578125,265448.875,275874.53125,261281.71875,245400.078125,201900.453125,252957.03125,229033.953125,-0.197021484375,0.9619140625,-0.115478515625,-1.6174315214157104,-0.7934569716453552,0.6408690810203552,80.0,766763.0,1.0
44643.0631105,261291.28125,268464.84375,278065.1875,264797.65625,248024.171875,203223.328125,253614.171875,230997.15625,-0.19580078125,0.958984375,-0.114990234375,-1.4343260526657104,-0.6713866591453552,0.6408690810203552,80.0,766764.0,1.0
44643.0717724,261754.9375,269835.28125,279114.5625,266888.4375,249060.765625,203793.46875,253727.53125,232270.125,-0.1953125,0.958740234375,-0.113525390625,-1.3427733182907104,-0.7324218153953552,0.6713866591453552,80.0,766765.0,1.0
44643.0792914,260882.25,267645.34375,277549.65625,264631.78125,247041.421875,202797.296875,253111.96875,231057.0625,-0.1943359375,0.95703125,-0.11328125,-1.2207030057907104,-0.6103515028953552,0.5798339247703552,80.0,766766.0,1.0
44643.0793379,259892.6875,264912.8125,275539.625,261144.828125,244762.4375,201617.03125,252634.53125,229034.40625,-0.19384765625,0.956787109375,-0.114013671875,-1.1291502714157104,-0.6103515028953552,0.5187987685203552,80.0,766767.0,1.0
44643.0793503,260150.53125,265435.125,275867.375,261264.09375,245382.828125,201896.25,252951.390625,229020.8125,-0.19384765625,0.957275390625,-0.117431640625,-0.9765624403953552,-0.5493163466453552,0.4882812201976776,80.0,766768.0,1.0
44643.0818,261294.765625,268458.84375,278064.84375,264782.875,248013.984375,203223.234375,253611.75,230990.890625,-0.19482421875,0.95703125,-0.113525390625,-0.8239745497703552,-0.5187987685203552,0.5493163466453552,80.0,766769.0,1.0
44643.0855251,261781.859375,269858.4375,279140.125,266906.9375,249080.96875,203809.03125,253739.703125,232288.640625,-0.197509765625,0.955810546875,-0.110595703125,-0.6408690810203552,-0.5493163466453552,0.5187987685203552,80.0,766770.0,1.0
44643.0998784,260919.875,267687.28125,277591.59375,264676.6875,247079.59375,202821.796875,253130.390625,231096.484375,-0.197998046875,0.957275390625,-0.10888671875,-0.5493163466453552,-0.5493163466453552,0.4882812201976776,80.0,766771.0,1.0
44643.0999232,259901.09375,264923.625,275552.125,261159.84375,244768.25,201616.140625,252626.84375,229052.28125,-0.197021484375,0.956787109375,-0.109619140625,-0.5798339247703552,-0.5493163466453552,0.4882812201976776,80.0,766772.0,1.0
44643.1019153,260140.25,265416.6875,275859.25,261249.796875,245363.15625,201880.15625,252933.515625,229017.5,-0.196533203125,0.958251953125,-0.115234375,-0.5798339247703552,-0.5187987685203552,0.4882812201976776,80.0,766773.0,1.0
44643.1043049,261280.109375,268442.21875,278054.1875,264774.03125,247999.59375,203208.390625,253594.765625,230989.734375,-0.197265625,0.961669921875,-0.1162109375,-0.4882812201976776,-0.4882812201976776,0.4577636420726776,80.0,766774.0,1.0
44643.1067993,261765.3125,269855.21875,279129.84375,266916.21875,249073.90625,203788.828125,253712.421875,232289.0,-0.198486328125,0.96435546875,-0.11328125,-0.3967284858226776,-0.5798339247703552,0.3967284858226776,80.0,766775.0,1.0
44643.1155786,260917.203125,267709.1875,277601.15625,264721.46875,247091.75,202816.609375,253116.0,231117.578125,-0.1962890625,0.9658203125,-0.113525390625,-0.2441406100988388,-0.6408690810203552,0.3967284858226776,80.0,766776.0,1.0
44643.118754,259908.875,264949.0,275573.40625,261211.265625,244789.4375,201626.953125,252629.53125,229087.421875,-0.19873046875,0.966552734375,-0.111572265625,-0.3356933295726776,-0.6103515028953552,0.5493163466453552,80.0,766777.0,1.0
44643.1187986,260146.953125,265422.78125,275868.71875,261277.6875,245371.65625,201883.296875,252932.4375,229039.765625,-0.198486328125,0.966552734375,-0.11181640625,-0.3356933295726776,-0.6713866591453552,0.4882812201976776,80.0,766778.0,1.0
44643.1292309,261305.9375,268461.4375,278078.875,264811.9375,248020.6875,203220.8125,253603.171875,231018.609375,-0.199462890625,0.9677734375,-0.10986328125,-0.3662109076976776,-0.7629393935203552,0.4577636420726776,80.0,766779.0,1.0
44643.1361858,261803.578125,269906.0,279182.78125,266991.5,249125.84375,203821.28125,253738.890625,232342.453125,-0.200927734375,0.9697265625,-0.1103515625,-0.3662109076976776,-0.7934569716453552,0.3967284858226776,80.0,766780.0,1.0
44643.1362384,260942.0625,267759.4375,277651.9375,264800.9375,247142.71875,202843.34375,253129.578125,231167.5625,-0.202880859375,0.966552734375,-0.11376953125,-0.4272460639476776,-0.9155272841453552,0.3662109076976776,80.0,766781.0,1.0
44643.1380605,259926.296875,264985.125,275609.625,261271.609375,244820.09375,201637.59375,252629.796875,229118.09375,-0.20458984375,0.96875,-0.112548828125,-0.3967284858226776,-1.0070799589157104,0.4577636420726776,80.0,766782.0,1.0
44643.1405233,260149.1875,265431.90625,275881.15625,261302.71875,245375.578125,201877.296875,252925.921875,229048.53125,-0.203857421875,0.967529296875,-0.111572265625,-0.4577636420726776,-1.1901854276657104,0.5493163466453552,80.0,766783.0,1.0
44643.1430506,261305.234375,268462.875,278087.375,264829.5625,248024.171875,203213.75,253601.390625,231023.890625,-0.20361328125,0.96826171875,-0.11328125,-0.5187987685203552,-1.2817381620407104,0.4882812201976776,80.0,766784.0,1.0
44643.1568078,261797.765625,269913.0625,279197.4375,267019.84375,249141.578125,203815.375,253732.546875,232347.109375,-0.20263671875,0.966064453125,-0.113525390625,-0.4272460639476776,-1.3732908964157104,0.4882812201976776,80.0,766785.0,1.0
44643.159885,260940.890625,267785.1875,277677.0625,264847.875,247170.609375,202846.921875,253124.125,231189.5625,-0.202880859375,0.96484375,-0.113037109375,-0.5798339247703552,-1.4953612089157104,0.4577636420726776,80.0,766786.0,1.0
44643.1599294,259936.859375,265020.1875,275642.4375,261328.5625,244856.390625,201659.859375,252642.140625,229165.5625,-0.20263671875,0.963623046875,-0.11376953125,-0.4577636420726776,-1.5563963651657104,0.4882812201976776,80.0,766787.0,1.0
44643.161862,260154.109375,265453.34375,275906.71875,261341.890625,245401.953125,201900.28125,252942.015625,229095.921875,-0.203125,0.96240234375,-0.116455078125,-0.3662109076976776,-1.5869139432907104,0.5187987685203552,80.0,766788.0,1.0
44643.1642576,261299.140625,268480.75,278105.15625,264855.9375,248042.859375,203229.484375,253610.765625,231063.40625,-0.20068359375,0.961181640625,-0.11328125,-0.3051757514476776,-1.7700194120407104,0.5493163466453552,80.0,766789.0,1.0
44643.1680441,261793.5625,269949.1875,279223.625,267065.625,249170.640625,203835.21875,253741.578125,232401.296875,-0.20166015625,0.961669921875,-0.1123046875,-0.1831054538488388,-1.9226073026657104,0.5493163466453552,80.0,766790.0,1.0
44643.177379,260956.546875,267846.96875,277728.84375,264929.4375,247228.90625,202888.5,253154.4375,231270.296875,-0.198974609375,0.95947265625,-0.1123046875,-0.0915527269244194,-1.9226073026657104,0.6713866591453552,80.0,766791.0,1.0
44643.1774237,259944.8125,265061.75,275683.3125,261390.703125,244900.296875,201690.796875,252666.359375,229228.765625,-0.199951171875,0.958740234375,-0.11181640625,-0.0915527269244194,-1.9836424589157104,0.7629393935203552,80.0,766792.0,1.0
44643.1794166,260151.609375,265456.84375,275918.96875,261361.375,245414.390625,201905.1875,252953.90625,229123.359375,-0.200439453125,0.9599609375,-0.111083984375,0.0610351525247097,-2.014159917831421,0.6713866591453552,80.0,766793.0,1.0
44643.1830129,261279.125,268452.40625,278091.46875,264842.96875,248026.953125,203209.90625,253599.234375,231057.0625,-0.1982421875,0.9609375,-0.110107421875,0.1525878757238388,-2.166747808456421,0.7019042372703552,80.0,766794.0,1.0
44643.1973968,261785.875,269946.6875,279224.1875,267070.8125,249170.46875,203826.640625,253733.265625,232402.546875,-0.196044921875,0.961181640625,-0.114501953125,0.1525878757238388,-2.258300542831421,0.7019042372703552,80.0,766795.0,1.0
44643.1974433,260951.625,267858.5,277735.625,264943.28125,247233.640625,202880.359375,253144.96875,231277.625,-0.1962890625,0.9599609375,-0.11376953125,0.2746581733226776,-2.105712652206421,0.6713866591453552,80.0,766796.0,1.0
44643.1993098,259920.765625,265046.375,275662.375,261371.5625,244876.25,201662.90625,252640.96875,229213.484375,-0.19384765625,0.960693359375,-0.114501953125,0.3051757514476776,-2.227782964706421,0.7324218153953552,80.0,766797.0,1.0
44643.2018723,260094.125,265395.5,275855.21875,261285.109375,245346.609375,201852.625,252906.328125,229065.6875,-0.193115234375,0.960205078125,-0.1103515625,0.2136230319738388,-2.258300542831421,0.8239745497703552,80.0,766798.0,1.0
44643.2042998,261249.171875,268413.96875,278049.375,264776.1875,247984.484375,203186.578125,253584.578125,231020.3125,-0.19287109375,0.96240234375,-0.112548828125,0.3051757514476776,-2.319335699081421,0.7934569716453552,80.0,766799.0,1.0
44643.2105579,261775.953125,269928.25,279205.75,267028.15625,249155.796875,203818.5,253738.71875,232381.0,-0.192138671875,0.95947265625,-0.11181640625,0.3662109076976776,-2.288818120956421,0.7934569716453552,80.0,766800.0,1.0
44643.2149072,260933.921875,267837.84375,277712.5625,264896.625,247213.703125,202869.625,253142.640625,231247.5,-0.19384765625,0.95703125,-0.11279296875,0.3356933295726776,-2.319335699081421,0.8850097060203552,80.0,766801.0,1.0
44643.2149504,259899.921875,265013.75,275627.59375,261302.71875,244838.875,201648.953125,252632.484375,229172.09375,-0.192138671875,0.9580078125,-0.111572265625,0.4272460639476776,-2.197265386581421,0.8239745497703552,80.0,766802.0,1.0
44643.2456662,260088.9375,265356.4375,275822.875,261199.1875,245304.78125,201846.0,252913.484375,229024.296875,-0.190185546875,0.955322265625,-0.116455078125,0.4272460639476776,-2.075195074081421,0.8850097060203552,80.0,766803.0,1.0
44643.2544794,261238.4375,268357.28125,278007.34375,264671.84375,247931.46875,203167.0,253587.609375,230958.0,-0.19091796875,0.95703125,-0.1201171875,0.5798339247703552,-2.044677495956421,0.8544921278953552,80.0,766804.0,1.0
44643.2545278,261764.875,269885.78125,279169.09375,266938.59375,249113.328125,203798.65625,253737.015625,232322.515625,-0.191650390625,0.9599609375,-0.1181640625,0.6408690810203552,-1.9226073026657104,0.7934569716453552,80.0,766805.0,1.0
44643.2593142,260926.953125,267812.53125,277685.03125,264830.28125,247182.234375,202849.515625,253140.140625,231201.53125,-0.19091796875,0.96240234375,-0.11572265625,0.7629393935203552,-1.8920897245407104,0.7934569716453552,80.0,766806.0,1.0
44643.2618123,259887.59375,264980.9375,275596.03125,261228.25,244799.0,201622.046875,252629.171875,229122.375,-0.19140625,0.964111328125,-0.11767578125,0.8239745497703552,-1.8005369901657104,0.6408690810203552,80.0,766807.0,1.0
44643.2644141,260071.953125,265305.65625,275778.59375,261102.8125,245252.828125,201815.96875,252908.390625,228962.875,-0.189697265625,0.967529296875,-0.120849609375,0.7629393935203552,-1.8615721464157104,0.6713866591453552,80.0,766808.0,1.0
44643.2668825,261242.546875,268321.8125,277976.9375,264587.53125,247893.46875,203156.625,253600.140625,230910.609375,-0.191162109375,0.96875,-0.115966796875,0.7934569716453552,-1.6174315214157104,0.5187987685203552,80.0,766809.0,1.0
44643.2718147,261773.265625,269866.125,279149.6875,266876.09375,249087.5,203793.5625,253749.0,232286.9375,-0.193115234375,0.969970703125,-0.11767578125,0.7324218153953552,-1.5563963651657104,0.5493163466453552,80.0,766810.0,1.0
44643.2743067,260926.671875,267796.8125,277664.375,264778.96875,247156.75,202839.671875,253139.59375,231164.703125,-0.193359375,0.969482421875,-0.1162109375,0.6103515028953552,-1.4953612089157104,0.4577636420726776,80.0,766811.0,1.0
44643.2769324,259881.15625,264952.0625,275567.25,261171.734375,244765.5625,201604.4375,252622.640625,229075.625,-0.194580078125,0.9677734375,-0.118896484375,0.5187987685203552,-1.4038084745407104,0.3967284858226776,80.0,766812.0,1.0
44643.2792972,260069.171875,265270.875,275747.3125,261041.65625,245217.15625,201798.359375,252910.359375,228916.109375,-0.193603515625,0.966064453125,-0.118408203125,0.3051757514476776,-1.3427733182907104,0.3662109076976776,80.0,766813.0,1.0
44643.2818056,261213.40625,268261.8125,277921.6875,264510.03125,247839.1875,203111.921875,253576.34375,230841.140625,-0.19482421875,0.960205078125,-0.115966796875,0.2441406100988388,-1.3427733182907104,0.3662109076976776,80.0,766814.0,1.0
44643.2843132,261749.578125,269832.6875,279114.46875,266837.46875,249060.5,203758.78125,253728.796875,232234.1875,-0.194091796875,0.959228515625,-0.119873046875,0.2746581733226776,-1.3732908964157104,0.2136230319738388,80.0,766815.0,1.0
44643.2874747,260931.6875,267809.5,277669.75,264795.6875,247172.84375,202836.1875,253143.703125,231153.890625,-0.1943359375,0.959716796875,-0.12255859375,0.3967284858226776,-1.1901854276657104,0.0610351525247097,80.0,766816.0,1.0
44643.2875226,259888.578125,264964.375,275576.0,261194.453125,244778.703125,201604.34375,252627.75,229080.09375,-0.1923828125,0.95849609375,-0.125732421875,0.6713866591453552,-1.1291502714157104,-0.0915527269244194,80.0,766817.0,1.0
44643.2891925,260067.5625,265260.6875,275742.5625,261040.765625,245211.4375,201783.953125,252904.453125,228909.140625,-0.1943359375,0.95849609375,-0.12548828125,0.8850097060203552,-0.9765624403953552,-0.1525878757238388,80.0,766818.0,1.0
44643.2920681,261241.921875,268281.84375,277947.09375,264536.5625,247866.734375,203125.875,253601.921875,230863.21875,-0.19580078125,0.958740234375,-0.126220703125,1.0070799589157104,-0.9765624403953552,-0.2136230319738388,80.0,766819.0,1.0
44643.2943168,261779.4375,269868.71875,279148.71875,266882.53125,249099.125,203779.4375,253753.375,232271.921875,-0.197509765625,0.960693359375,-0.120849609375,1.0986326932907104,-1.0070799589157104,-0.3662109076976776,80.0,766820.0,1.0
44643.2975108,260947.421875,267841.0625,277696.65625,264845.84375,247204.3125,202845.84375,253153.453125,231195.453125,-0.198486328125,0.963134765625,-0.115234375,1.0986326932907104,-0.9765624403953552,-0.3967284858226776,80.0,766821.0,1.0
44643.2975561,259899.484375,264978.5,275589.96875,261222.890625,244795.6875,201605.328125,252633.46875,229106.640625,-0.200439453125,0.967041015625,-0.115966796875,1.0070799589157104,-1.0986326932907104,-0.5493163466453552,80.0,766822.0,1.0
44643.2992991,260061.578125,265245.21875,275731.40625,261029.3125,245197.125,201766.53125,252899.0,228907.890625,-0.20263671875,0.968017578125,-0.115966796875,0.9460448622703552,-1.1596678495407104,-0.7629393935203552,80.0,766823.0,1.0
44643.3030057,261205.984375,268235.34375,277907.125,264492.40625,247824.0,203079.734375,253572.859375,230835.0625,-0.205078125,0.968994140625,-0.11865234375,0.8239745497703552,-1.1596678495407104,-0.9155272841453552,80.0,766824.0,1.0
44643.3174036,261772.828125,269868.8125,279146.5625,266886.0,249098.671875,203764.59375,253751.859375,232278.453125,-0.2041015625,0.972900390625,-0.11865234375,0.6713866591453552,-1.2817381620407104,-0.9460448622703552,80.0,766825.0,1.0
44643.3174486,260956.890625,267866.1875,277714.71875,264876.9375,247225.765625,202851.125,253162.21875,231220.5,-0.202392578125,0.973388671875,-0.117431640625,0.4272460639476776,-1.4648436307907104,-1.0070799589157104,80.0,766826.0,1.0
44643.3199267,259900.90625,264988.71875,275597.03125,261236.46875,244801.0625,201603.0,252633.203125,229119.78125,-0.20361328125,0.9755859375,-0.1162109375,0.2441406100988388,-1.6174315214157104,-1.0986326932907104,80.0,766827.0,1.0
44643.3199702,260053.0,265231.0,275719.875,261010.8125,245181.296875,201755.34375,252892.828125,228899.9375,-0.203369140625,0.976806640625,-0.11572265625,0.0915527269244194,-1.7395018339157104,-1.0070799589157104,80.0,766828.0,1.0
44643.3254748,261209.375,268229.25,277900.59375,264469.59375,247811.921875,203083.75,253575.453125,230826.03125,-0.2001953125,0.9755859375,-0.11376953125,-0.2136230319738388,-1.7700194120407104,-1.0375975370407104,80.0,766829.0,1.0
44643.3423414,261782.03125,269872.21875,279148.1875,266874.125,249097.78125,203772.1875,253755.515625,232266.90625,-0.199951171875,0.972412109375,-0.112060546875,-0.3967284858226776,-1.9531248807907104,-1.0070799589157104,80.0,766830.0,1.0
44643.3423817,260965.484375,267879.5,277724.28125,264881.40625,247234.359375,202857.921875,253165.96875,231213.78125,-0.19970703125,0.971435546875,-0.11181640625,-0.5493163466453552,-1.8310545682907104,-0.8850097060203552,80.0,766831.0,1.0
44643.3447899,259901.265625,264983.59375,275589.875,261219.84375,244789.96875,201603.265625,252632.03125,229101.1875,-0.19921875,0.969970703125,-0.114013671875,-0.6408690810203552,-1.7395018339157104,-0.7934569716453552,80.0,766832.0,1.0
44643.3448218,260043.875,265196.5625,275688.5625,260956.625,245140.625,201743.28125,252883.796875,228860.5,-0.197998046875,0.97021484375,-0.112548828125,-0.8239745497703552,-1.8615721464157104,-0.6408690810203552,80.0,766833.0,1.0
44643.3472366,261192.125,268180.34375,277857.78125,264393.53125,247757.46875,203060.15625,253559.546875,230767.828125,-0.197998046875,0.972412109375,-0.11181640625,-0.8850097060203552,-1.9226073026657104,-0.4577636420726776,80.0,766834.0,1.0
44643.3472729,261765.140625,269834.28125,279110.1875,266807.78125,249052.0,203749.65625,253738.625,232209.15625,-0.19775390625,0.97021484375,-0.115478515625,-1.0986326932907104,-1.9531248807907104,-0.3356933295726776,80.0,766835.0,1.0
44643.3579112,260963.328125,267865.375,277705.0625,264841.53125,247207.265625,202854.078125,253158.90625,231174.453125,-0.200927734375,0.96728515625,-0.11376953125,-1.1596678495407104,-1.8615721464157104,-0.1831054538488388,80.0,766836.0,1.0
44643.364865,259888.75,264947.75,275553.5625,261154.671875,244742.671875,201587.984375,252619.609375,229046.203125,-0.200439453125,0.96533203125,-0.111328125,-1.1596678495407104,-1.9531248807907104,-0.0610351525247097,80.0,766837.0,1.0
44643.3649086,260030.46875,265145.15625,275642.0,260866.328125,245085.015625,201726.109375,252878.96875,228796.40625,-0.201171875,0.9619140625,-0.114501953125,-1.2512205839157104,-2.014159917831421,0.0610351525247097,80.0,766838.0,1.0
44643.4075068,261172.015625,268118.03125,277799.65625,264283.8125,247693.90625,203032.890625,253551.234375,230690.671875,-0.20068359375,0.95751953125,-0.116455078125,-1.1596678495407104,-1.9531248807907104,0.2136230319738388,80.0,766839.0,1.0
44643.4075576,261747.078125,269792.8125,279065.03125,266713.8125,249001.484375,203726.5,253729.234375,232141.921875,-0.20166015625,0.955078125,-0.114013671875,-1.2817381620407104,-2.136230230331421,0.1831054538488388,80.0,766840.0,1.0
44643.4075688,260953.046875,267842.9375,277673.84375,264770.0,247174.453125,202832.96875,253152.828125,231117.578125,-0.206298828125,0.951416015625,-0.115478515625,-1.0986326932907104,-1.9836424589157104,0.2441406100988388,80.0,766841.0,1.0
44643.4075789,259886.703125,264931.75,275528.4375,261089.21875,244713.53125,201569.203125,252620.5,228999.09375,-0.20703125,0.94970703125,-0.11328125,-1.0375975370407104,-2.136230230331421,0.1525878757238388,80.0,766842.0,1.0
44643.4075891,260012.84375,265100.1875,275597.5625,260776.390625,245032.53125,201689.453125,252867.4375,228729.53125,-0.206787109375,0.95068359375,-0.111572265625,-0.8239745497703552,-2.258300542831421,0.1220703050494194,80.0,766843.0,1.0
44643.407599,261160.5625,268080.21875,277764.0625,264211.125,247654.484375,203000.703125,253545.953125,230635.5,-0.20654296875,0.95166015625,-0.112548828125,-0.6408690810203552,-2.349853277206421,0.0915527269244194,80.0,766844.0,1.0
44643.4076104,261754.5,269796.125,279061.375,266707.65625,249007.828125,203715.5,253739.15625,232128.515625,-0.207763671875,0.955810546875,-0.11181640625,-0.2136230319738388,-2.532958745956421,0.0,80.0,766845.0,1.0
44643.412511,260977.453125,267882.90625,277700.6875,264826.4375,247217.375,202842.625,253174.90625,231144.671875,-0.208251953125,0.95458984375,-0.107666015625,-0.2136230319738388,-2.593993902206421,-0.03051757626235485,80.0,766846.0,1.0
44643.4125563,259900.28125,264964.75,275553.125,261156.71875,244755.90625,201575.90625,252632.75,229030.375,-0.20849609375,0.95654296875,-0.109375,-0.1831054538488388,-2.532958745956421,-0.0915527269244194,80.0,766847.0,1.0
44643.4143757,260020.1875,265133.09375,275623.9375,260856.9375,245079.734375,201697.59375,252874.6875,228773.78125,-0.205322265625,0.956298828125,-0.114013671875,-0.1831054538488388,-2.716064214706421,-0.1831054538488388,80.0,766848.0,1.0
44643.4168235,261155.65625,268106.40625,277786.6875,264293.65625,247695.96875,203002.21875,253542.640625,230681.375,-0.203857421875,0.958251953125,-0.111083984375,-0.0915527269244194,-2.716064214706421,-0.1831054538488388,80.0,766849.0,1.0
44643.4249031,261746.625,269816.5,279079.6875,266764.25,249034.203125,203713.625,253732.546875,232162.484375,-0.203369140625,0.959716796875,-0.112548828125,-0.0915527269244194,-2.838134527206421,-0.2136230319738388,80.0,766850.0,1.0
44643.424947,260960.203125,267887.28125,277702.28125,264838.15625,247218.265625,202831.71875,253162.125,231154.328125,-0.20263671875,0.96044921875,-0.113525390625,0.0,-2.868652105331421,-0.1525878757238388,80.0,766851.0,1.0
44643.4269186,259866.84375,264929.4375,275520.5,261099.40625,244712.984375,201546.21875,252615.765625,229003.015625,-0.1982421875,0.959716796875,-0.1123046875,0.0610351525247097,-2.899169683456421,0.0,80.0,766852.0,1.0
44643.4292984,259977.265625,265046.09375,275554.65625,260723.1875,244992.65625,201647.96875,252855.8125,228696.890625,-0.19677734375,0.955322265625,-0.115234375,0.1831054538488388,-2.838134527206421,0.0915527269244194,80.0,766853.0,1.0
44643.4318255,261130.96875,268022.09375,277720.25,264148.09375,247616.578125,202963.6875,253541.578125,230594.90625,-0.196044921875,0.95556640625,-0.114013671875,0.1220703050494194,-2.685546636581421,0.2136230319738388,80.0,766854.0,1.0
44643.4343189,261739.921875,269770.28125,279044.09375,266686.625,249000.234375,203691.71875,253740.765625,232105.4375,-0.197021484375,0.956787109375,-0.11376953125,0.2136230319738388,-2.746581792831421,0.3051757514476776,80.0,766855.0,1.0
44643.4367015,260966.546875,267891.3125,277704.53125,264846.625,247231.671875,202830.203125,253171.609375,231145.484375,-0.1962890625,0.957763671875,-0.11669921875,0.4272460639476776,-2.593993902206421,0.3051757514476776,80.0,766856.0,1.0
44643.441803,259872.484375,264944.0,275533.375,261146.078125,244737.125,201548.546875,252615.046875,229016.15625,-0.19677734375,0.9609375,-0.116455078125,0.5493163466453552,-2.410888433456421,0.4272460639476776,80.0,766857.0,1.0
44643.4449027,259988.265625,265070.34375,275577.0,260790.0625,245024.390625,201656.015625,252855.546875,228730.59375,-0.19921875,0.961669921875,-0.11865234375,0.4882812201976776,-2.441406011581421,0.4882812201976776,80.0,766858.0,1.0
44643.4449469,261131.78125,268047.84375,277739.75,264224.53125,247649.5625,202963.59375,253529.5,230633.625,-0.197265625,0.9619140625,-0.11767578125,0.5798339247703552,-2.380370855331421,0.5187987685203552,80.0,766859.0,1.0
44643.4467529,261768.359375,269845.375,279105.71875,266819.59375,249081.765625,203721.671875,253750.6875,232188.59375,-0.196533203125,0.963134765625,-0.117919921875,0.5798339247703552,-2.441406011581421,0.6408690810203552,80.0,766860.0,1.0
44643.4612745,261019.03125,268000.03125,277799.5625,265028.84375,247349.6875,202879.734375,253197.71875,231261.171875,-0.197998046875,0.96240234375,-0.114501953125,0.6713866591453552,-2.349853277206421,0.6408690810203552,80.0,766861.0,1.0
44643.4613214,259925.765625,265051.75,275629.03125,261329.015625,244850.671875,201600.140625,252642.3125,229138.921875,-0.197265625,0.96435546875,-0.114501953125,0.6103515028953552,-2.288818120956421,0.7019042372703552,80.0,766862.0,1.0
44643.4629005,260019.46875,265140.78125,275642.875,260935.265625,245105.84375,201688.203125,252870.03125,228827.875,-0.19921875,0.965576171875,-0.118896484375,0.6408690810203552,-2.227782964706421,0.6713866591453552,80.0,766863.0,1.0
44643.4704943,261167.265625,268126.34375,277812.78125,264374.125,247737.09375,203008.921875,253552.484375,230740.46875,-0.19921875,0.967529296875,-0.11767578125,0.7019042372703552,-2.288818120956421,0.6713866591453552,80.0,766864.0,1.0
44643.4731308,261793.5625,269930.40625,279179.84375,266979.25,249168.140625,203764.234375,253763.75,232296.6875,-0.197998046875,0.966796875,-0.1171875,0.5798339247703552,-2.227782964706421,0.7019042372703552,80.0,766865.0,1.0
44643.4762661,261038.4375,268099.0,277881.0,265206.15625,247441.6875,202927.109375,253206.03125,231386.703125,-0.19775390625,0.967529296875,-0.115234375,0.5798339247703552,-2.349853277206421,0.5798339247703552,80.0,766866.0,1.0
44643.4763122,259938.734375,265138.90625,275704.84375,261502.734375,244936.78125,201641.265625,252643.390625,229259.96875,-0.198974609375,0.96826171875,-0.114501953125,0.5187987685203552,-2.258300542831421,0.5493163466453552,80.0,766867.0,1.0
44643.4779837,260035.375,265222.0625,275720.03125,261106.03125,245194.265625,201730.671875,252875.9375,228953.484375,-0.201416015625,0.966064453125,-0.11572265625,0.4882812201976776,-2.319335699081421,0.3967284858226776,80.0,766868.0,1.0
44643.4918091,261203.921875,268229.34375,277921.15625,264583.6875,247859.046875,203069.71875,253578.140625,230897.734375,-0.203369140625,0.9658203125,-0.1162109375,0.4577636420726776,-2.380370855331421,0.4577636420726776,80.0,766869.0,1.0
44643.4949045,261851.6875,270074.4375,279330.125,267264.5625,249339.625,203848.28125,253801.921875,232503.578125,-0.205810546875,0.965087890625,-0.117431640625,0.5187987685203552,-2.319335699081421,0.3051757514476776,80.0,766870.0,1.0
44643.4949494,261113.359375,268286.5625,278067.34375,265566.09375,247653.671875,203027.96875,253247.328125,231635.609375,-0.20458984375,0.9677734375,-0.11767578125,0.4272460639476776,-2.380370855331421,0.1220703050494194,80.0,766871.0,1.0
44643.4968943,260031.796875,265360.28125,275919.96875,261916.59375,245175.484375,201758.296875,252692.390625,229552.6875,-0.204833984375,0.970947265625,-0.11669921875,0.3662109076976776,-2.502441167831421,-0.03051757626235485,80.0,766872.0,1.0
44643.4993222,260123.625,265447.375,275938.90625,261535.0,245433.15625,201850.5625,252920.28125,229261.765625,-0.205078125,0.97021484375,-0.11572265625,0.2746581733226776,-2.502441167831421,-0.1831054538488388,80.0,766873.0,1.0
44643.502945,261270.265625,268440.25,278124.65625,264996.75,248084.265625,203178.703125,253611.21875,231196.265625,-0.201416015625,0.966064453125,-0.11376953125,0.03051757626235485,-2.746581792831421,-0.2746581733226776,80.0,766874.0,1.0
44643.51242,261908.984375,270279.1875,279518.6875,267636.84375,249543.296875,203951.71875,253830.359375,232778.953125,-0.19873046875,0.9609375,-0.11767578125,0.03051757626235485,-2.807616949081421,-0.2136230319738388,80.0,766875.0,1.0
44643.5124656,261151.53125,268456.8125,278218.875,265852.8125,247808.34375,203114.609375,253264.671875,231859.390625,-0.196044921875,0.95703125,-0.118896484375,-0.0610351525247097,-2.655029058456421,-0.1220703050494194,80.0,766876.0,1.0
44643.5150088,260010.96875,265430.09375,275973.78125,262021.203125,245215.453125,201790.484375,252671.640625,229658.828125,-0.1962890625,0.95849609375,-0.11962890625,0.0,-2.655029058456421,0.0,80.0,766877.0,1.0
44643.5150547,260062.828125,265410.34375,275896.34375,261436.65625,245355.296875,201829.640625,252874.953125,229236.640625,-0.19580078125,0.962646484375,-0.12158203125,0.1831054538488388,-2.655029058456421,-0.03051757626235485,80.0,766878.0,1.0
44643.5254809,261203.484375,268342.1875,278026.5625,264758.75,247937.453125,203134.09375,253567.859375,231076.28125,-0.198486328125,0.96484375,-0.121337890625,0.2746581733226776,-2.655029058456421,-0.0610351525247097,80.0,766879.0,1.0
44643.5299153,261831.828125,270142.65625,279386.625,267329.03125,249364.828125,203886.71875,253782.515625,232599.328125,-0.20166015625,0.966552734375,-0.119873046875,0.3662109076976776,-2.532958745956421,-0.0610351525247097,80.0,766880.0,1.0
44643.529955,261088.421875,268326.71875,278093.71875,265549.5625,247641.6875,203056.3125,253228.375,231676.5625,-0.200439453125,0.966064453125,-0.119384765625,0.3662109076976776,-2.502441167831421,-0.0915527269244194,80.0,766881.0,1.0
44643.5355184,259980.578125,265326.125,275880.4375,261769.421875,245083.671875,201754.359375,252661.71875,229506.46875,-0.197265625,0.96484375,-0.117919921875,0.2746581733226776,-2.532958745956421,-0.1220703050494194,80.0,766882.0,1.0
44643.5400101,260034.03125,265298.3125,275804.34375,261217.609375,245235.75,201788.34375,252865.203125,229095.375,-0.19921875,0.962158203125,-0.11767578125,0.1525878757238388,-2.563476324081421,-0.0610351525247097,80.0,766883.0,1.0
44643.5400559,261168.609375,268226.84375,277932.25,264567.875,247826.671875,203077.40625,253542.203125,230938.953125,-0.20068359375,0.958251953125,-0.117919921875,0.2136230319738388,-2.624511480331421,0.0,80.0,766884.0,1.0
44643.5505834,261828.703125,270083.125,279336.75,267207.25,249302.78125,203856.0625,253777.34375,232509.390625,-0.202880859375,0.953857421875,-0.12109375,0.2136230319738388,-2.563476324081421,0.0610351525247097,80.0,766885.0,1.0
44643.5536098,261083.9375,268281.125,278048.75,265445.40625,247587.0625,203022.421875,253222.296875,231598.328125,-0.204833984375,0.953125,-0.118896484375,0.3051757514476776,-2.685546636581421,-0.1525878757238388,80.0,766886.0,1.0
44643.5536522,259955.265625,265236.4375,275800.34375,261612.78125,244991.765625,201697.0625,252642.765625,229395.875,-0.206298828125,0.95556640625,-0.12060546875,0.4577636420726776,-2.716064214706421,-0.1525878757238388,80.0,766887.0,1.0
44643.5592946,260002.484375,265179.21875,275700.46875,261001.875,245111.828125,201724.0625,252849.921875,228953.578125,-0.20703125,0.9580078125,-0.1162109375,0.7629393935203552,-2.777099370956421,-0.3051757514476776,80.0,766888.0,1.0
44643.5638413,261134.1875,268097.46875,277819.59375,264318.40625,247689.796875,203015.984375,253531.296875,230778.46875,-0.208251953125,0.96044921875,-0.115966796875,0.7934569716453552,-2.838134527206421,-0.3356933295726776,80.0,766889.0,1.0
44643.5638873,261772.375,269935.6875,279202.71875,266937.6875,249151.875,203776.03125,253744.609375,232319.484375,-0.207275390625,0.964111328125,-0.11474609375,0.8239745497703552,-2.990722417831421,-0.4577636420726776,80.0,766890.0,1.0
44643.5743099,261044.15625,268158.8125,277933.84375,265203.1875,247458.671875,202960.28125,253203.34375,231418.796875,-0.207275390625,0.9658203125,-0.11474609375,0.7019042372703552,-3.021239995956421,-0.5798339247703552,80.0,766891.0,1.0
44643.5799033,259909.5,265104.5625,275675.25,261359.40625,244849.515625,201626.6875,252616.125,229206.78125,-0.205810546875,0.9658203125,-0.115234375,0.6103515028953552,-3.082275152206421,-0.5798339247703552,80.0,766892.0,1.0
44643.5799479,259949.28125,265023.5625,275559.90625,260732.390625,244955.8125,201642.78125,252818.8125,228753.84375,-0.205078125,0.96484375,-0.115478515625,0.4577636420726776,-3.265380620956421,-0.5798339247703552,80.0,766893.0,1.0
44643.5817989,261092.171875,267957.90625,277689.9375,264072.375,247553.265625,202941.6875,253508.578125,230593.84375,-0.202880859375,0.965576171875,-0.114990234375,0.3967284858226776,-3.295898199081421,-0.6408690810203552,80.0,766894.0,1.0
44643.5856638,261759.421875,269846.53125,279112.78125,266751.90625,249060.40625,203731.328125,253743.625,232179.921875,-0.201416015625,0.966064453125,-0.11474609375,0.3051757514476776,-3.387450933456421,-0.5798339247703552,80.0,766895.0,1.0
44643.5917773,261025.109375,268078.0,277852.9375,265048.6875,247380.0,202917.015625,253193.421875,231292.640625,-0.202392578125,0.9658203125,-0.114990234375,0.3051757514476776,-3.356933355331421,-0.6408690810203552,80.0,766896.0,1.0
44643.5980934,259894.921875,265025.4375,275602.84375,261216.53125,244777.359375,201588.96875,252610.75,229086.96875,-0.2001953125,0.9677734375,-0.115478515625,0.3356933295726776,-3.356933355331421,-0.5798339247703552,80.0,766897.0,1.0
44643.6024147,259934.34375,264927.5625,275476.5,260567.703125,244866.40625,201594.421875,252810.21875,228620.1875,-0.198974609375,0.96875,-0.11669921875,0.1220703050494194,-3.295898199081421,-0.5493163466453552,80.0,766898.0,1.0
44643.6024808,261068.203125,267843.375,277592.5,263890.875,247451.078125,202880.890625,253496.15625,230444.53125,-0.198486328125,0.96728515625,-0.114501953125,0.0610351525247097,-3.173827886581421,-0.4577636420726776,80.0,766899.0,1.0
44643.6162672,261729.28125,269735.15625,279017.1875,266575.84375,248960.09375,203668.84375,253727.625,232027.484375,-0.196044921875,0.96728515625,-0.11279296875,0.0915527269244194,-3.143310308456421,-0.3662109076976776,80.0,766900.0,1.0
44643.6163131,261001.15625,267987.6875,277767.09375,264883.375,247287.375,202860.6875,253181.0,231151.46875,-0.197998046875,0.966064453125,-0.1123046875,-0.03051757626235485,-3.021239995956421,-0.2746581733226776,80.0,766901.0,1.0
44643.6179997,259863.09375,264917.53125,275498.5,261019.84375,244666.3125,201526.46875,252598.234375,228929.265625,-0.199462890625,0.96484375,-0.11328125,-0.1831054538488388,-2.960204839706421,-0.2136230319738388,80.0,766902.0,1.0
44643.6205866,259888.484375,264782.1875,275341.21875,260314.328125,244721.75,201514.9375,252790.640625,228427.0625,-0.19873046875,0.965087890625,-0.113525390625,-0.1831054538488388,-2.807616949081421,-0.03051757626235485,80.0,766903.0,1.0
44643.6230685,261016.0,267689.875,277445.59375,263604.25,247289.15625,202796.140625,253470.578125,230234.875,-0.201416015625,0.96435546875,-0.1142578125,-0.1525878757238388,-2.746581792831421,-0.03051757626235485,80.0,766904.0,1.0
44643.635012,261691.640625,269599.78125,278882.28125,266297.96875,248813.28125,203596.5,253716.359375,231823.90625,-0.202880859375,0.961669921875,-0.11328125,-0.1525878757238388,-2.685546636581421,0.0610351525247097,80.0,766905.0,1.0
44643.6350568,260961.90625,267846.6875,277626.84375,264595.40625,247136.8125,202783.890625,253166.6875,230936.265625,-0.202392578125,0.958740234375,-0.11474609375,-0.0915527269244194,-2.624511480331421,0.0915527269244194,80.0,766906.0,1.0
44643.636671,259799.96875,264741.125,275327.09375,260681.078125,244473.46875,201421.5,252560.515625,228680.171875,-0.202392578125,0.958251953125,-0.114990234375,-0.1831054538488388,-2.563476324081421,0.0610351525247097,80.0,766907.0,1.0
44643.6393323,259823.390625,264589.59375,275158.65625,259953.921875,244516.03125,201406.390625,252756.75,228167.328125,-0.202392578125,0.95751953125,-0.116455078125,-0.0610351525247097,-2.441406011581421,0.0610351525247097,80.0,766908.0,1.0
44643.6480152,260960.5625,267496.21875,277265.71875,263248.84375,247091.578125,202689.734375,253447.6875,229971.75,-0.2021484375,0.957275390625,-0.117919921875,0.0610351525247097,-2.441406011581421,0.03051757626235485,80.0,766909.0,1.0
44643.6512156,261636.390625,269411.9375,278706.875,265957.53125,248624.359375,203484.296875,253686.859375,231556.9375,-0.20361328125,0.957763671875,-0.114501953125,0.2136230319738388,-2.380370855331421,0.03051757626235485,80.0,766910.0,1.0
44643.6512606,260928.5625,267696.125,277482.4375,264308.84375,246981.78125,202687.234375,253149.4375,230702.109375,-0.2041015625,0.956787109375,-0.1162109375,0.3356933295726776,-2.410888433456421,0.0,80.0,766911.0,1.0
44643.6530035,259782.625,264613.5625,275201.40625,260434.40625,244338.90625,201340.859375,252556.578125,228472.65625,-0.204345703125,0.9580078125,-0.118408203125,0.3356933295726776,-2.349853277206421,-0.0610351525247097,80.0,766912.0,1.0
44643.6674063,259788.171875,264437.15625,275011.59375,259685.4375,244357.15625,201316.1875,252741.015625,227948.828125,-0.205322265625,0.958740234375,-0.116455078125,0.5187987685203552,-2.197265386581421,-0.1525878757238388,80.0,766913.0,1.0
44643.6674514,260924.171875,267339.40625,277118.1875,262985.375,246939.21875,202602.390625,253435.625,229758.421875,-0.204345703125,0.959228515625,-0.117431640625,0.5798339247703552,-2.258300542831421,-0.2441406100988388,80.0,766914.0,1.0
44643.6692016,261614.9375,269286.59375,278579.5625,265722.1875,248496.96875,203416.625,253689.1875,231365.515625,-0.203125,0.958740234375,-0.115966796875,0.5798339247703552,-2.166747808456421,-0.2746581733226776,80.0,766915.0,1.0
44643.6719224,260895.75,267566.03125,277342.96875,264057.0,246840.421875,202609.984375,253138.4375,230495.3125,-0.201171875,0.959228515625,-0.117431640625,0.5798339247703552,-2.075195074081421,-0.2136230319738388,80.0,766916.0,1.0
44643.6753555,259743.375,264456.375,275043.0625,260144.71875,244175.203125,201257.0,252541.90625,228246.640625,-0.202392578125,0.96142578125,-0.119873046875,0.7324218153953552,-1.9531248807907104,-0.3356933295726776,80.0,766917.0,1.0
44643.6830534,259728.984375,264230.34375,274816.40625,259335.046875,244152.859375,201200.84375,252708.03125,227679.96875,-0.201171875,0.963134765625,-0.11767578125,0.6713866591453552,-1.9226073026657104,-0.3356933295726776,80.0,766918.0,1.0
44643.6861186,260859.078125,267119.90625,276913.4375,262621.9375,246723.578125,202472.75,253390.03125,229474.015625,-0.20361328125,0.962158203125,-0.11767578125,0.6408690810203552,-1.8615721464157104,-0.3051757514476776,80.0,766919.0,1.0
44643.6861606,261574.34375,269114.375,278418.09375,265437.0,248336.03125,203310.5,253659.671875,231127.421875,-0.201904296875,0.966064453125,-0.114990234375,0.6713866591453552,-1.8310545682907104,-0.2136230319738388,80.0,766920.0,1.0
44643.6943778,260901.28125,267476.71875,277259.09375,263912.96875,246770.78125,202556.53125,253143.625,230351.90625,-0.202392578125,0.96533203125,-0.114501953125,0.5798339247703552,-1.6784666776657104,-0.1831054538488388,80.0,766921.0,1.0
44643.706152,259766.078125,264417.3125,275003.28125,260099.578125,244159.921875,201224.0,252555.328125,228170.90625,-0.20263671875,0.96533203125,-0.11328125,0.5187987685203552,-1.7089842557907104,-0.1525878757238388,80.0,766922.0,1.0
44643.7062161,259765.28125,264229.28125,274819.1875,259384.234375,244188.078125,201187.875,252728.6875,227670.3125,-0.20263671875,0.967529296875,-0.11279296875,0.6408690810203552,-1.7089842557907104,-0.1831054538488388,80.0,766923.0,1.0
44643.7085788,260913.09375,267172.75,276966.8125,262772.3125,246819.5,202485.09375,253418.09375,229536.25,-0.2060546875,0.967041015625,-0.11669921875,0.5187987685203552,-1.6174315214157104,-0.1220703050494194,80.0,766924.0,1.0
44643.7086274,261644.171875,269235.625,278528.0625,265696.90625,248494.71875,203353.40625,253695.53125,231263.234375,-0.206298828125,0.964111328125,-0.11669921875,0.2746581733226776,-1.6479490995407104,-0.1220703050494194,80.0,766925.0,1.0
44643.7168128,260968.34375,267641.0625,277402.96875,264247.625,246964.078125,202613.125,253171.6875,230538.859375,-0.20556640625,0.965087890625,-0.11572265625,0.1831054538488388,-1.7395018339157104,-0.0915527269244194,80.0,766926.0,1.0
44643.7200111,259823.390625,264583.34375,275152.75,260451.5625,244349.640625,201280.859375,252572.40625,228376.28125,-0.20703125,0.96337890625,-0.11767578125,0.1831054538488388,-1.7700194120407104,-0.0915527269244194,80.0,766927.0,1.0
44643.7200968,259817.671875,264393.78125,274969.03125,259733.1875,244371.984375,201250.828125,252747.375,227887.3125,-0.207275390625,0.96337890625,-0.115478515625,0.1525878757238388,-1.5869139432907104,-0.0915527269244194,80.0,766928.0,1.0
44643.7218248,260970.578125,267352.625,277132.6875,263142.0,247020.578125,202567.875,253451.71875,229777.375,-0.208740234375,0.9609375,-0.114990234375,0.1220703050494194,-1.6784666776657104,0.0,80.0,766929.0,1.0
44643.7293061,261723.203125,269456.90625,278726.8125,266109.0625,248731.390625,203465.078125,253746.3125,231545.390625,-0.208251953125,0.960693359375,-0.114013671875,0.0915527269244194,-1.7089842557907104,0.03051757626235485,80.0,766930.0,1.0
44643.7361362,261056.9375,267884.15625,277619.21875,264678.71875,247217.1875,202734.890625,253228.203125,230842.21875,-0.207763671875,0.959228515625,-0.115234375,0.03051757626235485,-1.6784666776657104,-0.03051757626235485,80.0,766931.0,1.0
44643.7361796,259895.015625,264807.75,275354.8125,260861.59375,244582.90625,201388.59375,252617.734375,228670.875,-0.20751953125,0.9609375,-0.112548828125,0.0915527269244194,-1.7700194120407104,-0.03051757626235485,80.0,766932.0,1.0
44643.7388426,259859.6875,264566.625,275126.84375,260065.78125,244549.015625,201327.0,252769.984375,228133.453125,-0.208740234375,0.956787109375,-0.114501953125,0.1831054538488388,-1.7395018339157104,-0.0610351525247097,80.0,766933.0,1.0
44643.7388915,261005.71875,267496.21875,277259.625,263396.0,247153.359375,202629.5625,253468.703125,229977.828125,-0.208251953125,0.95703125,-0.116455078125,0.2441406100988388,-1.7700194120407104,-0.03051757626235485,80.0,766934.0,1.0
44643.7493101,261726.875,269557.40625,278809.5,266279.21875,248811.5,203494.671875,253737.109375,231685.140625,-0.209716796875,0.95654296875,-0.11572265625,0.2746581733226776,-1.8005369901657104,-0.1220703050494194,80.0,766935.0,1.0
44643.752428,261051.578125,267961.9375,277680.28125,264799.0625,247269.765625,202761.265625,253216.046875,230949.765625,-0.2099609375,0.95458984375,-0.116943359375,0.2746581733226776,-1.7700194120407104,0.0,80.0,766936.0,1.0
44643.7524761,259889.640625,264857.71875,275393.8125,260924.796875,244607.046875,201412.109375,252608.15625,228744.71875,-0.209716796875,0.9560546875,-0.1181640625,0.3662109076976776,-1.8920897245407104,0.0610351525247097,80.0,766937.0,1.0
44643.7605113,259862.015625,264601.65625,275157.5,260096.71875,244562.78125,201354.265625,252773.03125,228194.421875,-0.20751953125,0.956298828125,-0.118896484375,0.3967284858226776,-1.9226073026657104,0.03051757626235485,80.0,766938.0,1.0
44643.7697797,261005.984375,267526.0625,277291.09375,263436.25,247175.53125,202655.59375,253474.515625,230036.921875,-0.207275390625,0.95654296875,-0.119140625,0.3967284858226776,-1.9531248807907104,-0.0610351525247097,80.0,766939.0,1.0
44643.7698316,261756.90625,269630.96875,278888.09375,266398.46875,248890.625,203551.171875,253767.6875,231790.1875,-0.2080078125,0.9580078125,-0.116455078125,0.4577636420726776,-1.9226073026657104,0.1525878757238388,80.0,766940.0,1.0
44643.7718006,261095.484375,268075.84375,277791.34375,264983.78125,247387.15625,202829.390625,253251.265625,231094.34375,-0.2080078125,0.95751953125,-0.11669921875,0.3967284858226776,-1.9226073026657104,0.0,80.0,766941.0,1.0
44643.776834,259918.703125,264967.5,275496.53125,261121.859375,244719.34375,201466.390625,252627.65625,228890.71875,-0.206787109375,0.960693359375,-0.119384765625,0.3967284858226776,-1.8615721464157104,0.03051757626235485,80.0,766942.0,1.0
44643.7793222,259872.484375,264679.4375,275235.71875,260272.3125,244652.28125,201388.59375,252777.140625,228325.5,-0.20703125,0.962890625,-0.1162109375,0.3967284858226776,-1.8310545682907104,0.0610351525247097,80.0,766943.0,1.0
44643.7831809,261014.296875,267598.0625,277366.21875,263602.0,247260.640625,202693.3125,253476.21875,230168.4375,-0.20751953125,0.964111328125,-0.1171875,0.2746581733226776,-1.8310545682907104,0.1220703050494194,80.0,766944.0,1.0
44643.79361,261778.8125,269736.84375,278984.125,266596.34375,249000.40625,203604.640625,253776.71875,231944.421875,-0.207763671875,0.966064453125,-0.115966796875,0.2441406100988388,-1.8920897245407104,0.2746581733226776,80.0,766945.0,1.0
44643.7936529,261132.765625,268210.5625,277912.03125,265220.53125,247521.796875,202898.328125,253269.953125,231271.640625,-0.2041015625,0.9658203125,-0.11669921875,0.2441406100988388,-1.8920897245407104,0.2136230319738388,80.0,766946.0,1.0
44643.7999234,259964.5625,265101.71875,275623.125,261360.390625,244852.546875,201540.5,252654.125,229076.25,-0.20556640625,0.964599609375,-0.115478515625,0.0610351525247097,-1.7700194120407104,0.2136230319738388,80.0,766947.0,1.0
44643.799969,259899.75,264772.15625,275330.6875,260454.078125,244745.71875,201437.59375,252787.0625,228472.75,-0.206298828125,0.966064453125,-0.114013671875,-0.03051757626235485,-1.8005369901657104,0.1831054538488388,80.0,766948.0,1.0
44643.8086157,261026.90625,267658.65625,277434.875,263741.125,247325.90625,202712.1875,253471.5625,230278.59375,-0.205322265625,0.9677734375,-0.11376953125,-0.1220703050494194,-1.7089842557907104,0.3051757514476776,80.0,766949.0,1.0
44643.8086605,261799.640625,269815.25,279064.9375,266748.875,249079.890625,203630.21875,253780.28125,232062.609375,-0.20751953125,0.966796875,-0.115478515625,-0.3051757514476776,-1.7395018339157104,0.3662109076976776,80.0,766950.0,1.0
44643.8112638,261162.625,268311.78125,278004.84375,265386.84375,247616.75,202938.5625,253283.625,231403.234375,-0.208984375,0.964599609375,-0.112548828125,-0.3356933295726776,-1.6174315214157104,0.4577636420726776,80.0,766951.0,1.0
44643.8113096,259983.515625,265189.34375,275704.84375,261509.25,244934.546875,201572.15625,252657.6875,229192.65625,-0.20703125,0.96337890625,-0.11572265625,-0.3662109076976776,-1.7089842557907104,0.4577636420726776,80.0,766952.0,1.0
44643.8268073,259920.40625,264849.5,275405.78125,260585.40625,244817.78125,201472.828125,252796.546875,228580.03125,-0.2060546875,0.96337890625,-0.11328125,-0.4272460639476776,-1.6174315214157104,0.5493163466453552,80.0,766953.0,1.0
44643.8317532,261048.890625,267737.25,277510.96875,263866.28125,247399.765625,202757.953125,253488.375,230387.9375,-0.2060546875,0.963623046875,-0.111572265625,-0.4577636420726776,-1.5563963651657104,0.5798339247703552,80.0,766954.0,1.0
44643.8318,261814.046875,269892.6875,279138.53125,266868.5625,249151.875,203670.984375,253782.96875,232161.765625,-0.205322265625,0.9638671875,-0.1123046875,-0.5187987685203552,-1.4038084745407104,0.5798339247703552,80.0,766955.0,1.0
44643.8318122,261180.6875,268397.875,278086.46875,265519.875,247698.203125,202982.546875,253287.484375,231505.078125,-0.205810546875,0.960205078125,-0.113037109375,-0.4882812201976776,-1.5258787870407104,0.6713866591453552,80.0,766956.0,1.0
44643.8349348,260006.328125,265277.3125,275790.0625,261646.21875,245017.875,201622.046875,252668.25,229299.140625,-0.2060546875,0.9609375,-0.113037109375,-0.5493163466453552,-1.5563963651657104,0.7019042372703552,80.0,766957.0,1.0
44643.8349799,259925.3125,264903.15625,275464.25,260686.265625,244871.328125,201506.796875,252795.921875,228664.25,-0.205078125,0.958984375,-0.1142578125,-0.5187987685203552,-1.4648436307907104,0.7324218153953552,80.0,766958.0,1.0
44643.8481923,261063.46875,267788.9375,277567.28125,263958.5625,247451.96875,202797.75,253496.0625,230475.203125,-0.2041015625,0.960205078125,-0.113525390625,-0.4882812201976776,-1.5563963651657104,0.8239745497703552,80.0,766959.0,1.0
44643.8859849,261837.203125,269956.0625,279202.625,266975.96875,249214.71875,203717.203125,253797.90625,232255.109375,-0.20458984375,0.960693359375,-0.115234375,-0.5187987685203552,-1.4648436307907104,0.7934569716453552,80.0,766960.0,1.0
44643.8860317,261197.40625,268463.59375,278149.875,265635.65625,247759.171875,203022.78125,253290.609375,231593.859375,-0.20654296875,0.9609375,-0.11376953125,-0.6103515028953552,-1.5258787870407104,0.7934569716453552,80.0,766961.0,1.0
44643.8860421,260017.234375,265337.9375,275845.03125,261750.5625,245064.359375,201659.859375,252662.609375,229386.75,-0.207275390625,0.9599609375,-0.115478515625,-0.5187987685203552,-1.4038084745407104,0.7629393935203552,80.0,766962.0,1.0
44643.8860535,259938.546875,264950.34375,275511.46875,260768.96875,244907.359375,201547.296875,252792.78125,228744.09375,-0.208740234375,0.96142578125,-0.115966796875,-0.4272460639476776,-1.3427733182907104,0.5493163466453552,80.0,766963.0,1.0
44643.8936404,261058.375,267810.21875,277594.46875,264014.0,247468.6875,202820.546875,253482.921875,230526.609375,-0.20751953125,0.962158203125,-0.113037109375,-0.5493163466453552,-1.4038084745407104,0.4882812201976776,80.0,766964.0,1.0
44643.8936865,261835.328125,269996.125,279239.46875,267050.25,249247.796875,203740.359375,253785.734375,232315.640625,-0.20751953125,0.96240234375,-0.11181640625,-0.5493163466453552,-1.5258787870407104,0.4882812201976776,80.0,766965.0,1.0
44643.8936972,261218.40625,268540.40625,278217.8125,265752.6875,247826.5,203066.0625,253294.984375,231690.140625,-0.20849609375,0.960693359375,-0.113037109375,-0.5187987685203552,-1.5258787870407104,0.4272460639476776,80.0,766966.0,1.0
44643.8937084,260034.03125,265402.46875,275906.8125,261862.046875,245125.15625,201691.25,252663.859375,229478.046875,-0.20751953125,0.9609375,-0.113037109375,-0.5187987685203552,-1.6174315214157104,0.3051757514476776,80.0,766967.0,1.0
44643.8980366,259943.734375,264988.34375,275555.09375,260847.828125,244947.234375,201560.53125,252792.078125,228817.859375,-0.207275390625,0.96435546875,-0.112060546875,-0.5493163466453552,-1.5563963651657104,0.2441406100988388,80.0,766968.0,1.0
44643.9006671,261060.4375,267839.71875,277630.0625,264075.3125,247503.375,202827.875,253481.84375,230589.015625,-0.2080078125,0.965087890625,-0.10986328125,-0.3967284858226776,-1.4953612089157104,0.1525878757238388,80.0,766969.0,1.0
44643.9029537,261849.71875,270047.34375,279295.625,267138.125,249306.0,203763.515625,253798.96875,232391.015625,-0.20703125,0.968505859375,-0.110107421875,-0.4272460639476776,-1.4953612089157104,0.1831054538488388,80.0,766970.0,1.0
44643.9055743,261227.625,268598.15625,278275.84375,265852.09375,247886.578125,203091.453125,253303.21875,231770.609375,-0.20947265625,0.970458984375,-0.11279296875,-0.5798339247703552,-1.5563963651657104,0.1220703050494194,80.0,766971.0,1.0
44643.9105592,260044.5,265457.09375,275961.1875,261957.453125,245179.78125,201721.015625,252673.609375,229557.875,-0.21044921875,0.968994140625,-0.111572265625,-0.6408690810203552,-1.5258787870407104,0.1220703050494194,80.0,766972.0,1.0
44643.9131885,259956.96875,265033.5,275601.3125,260934.015625,244994.71875,201592.1875,252806.640625,228898.421875,-0.20703125,0.966064453125,-0.10888671875,-0.6408690810203552,-1.7089842557907104,0.0610351525247097,80.0,766973.0,1.0
44643.9155509,261070.984375,267872.71875,277669.84375,264148.71875,247542.90625,202855.859375,253497.9375,230661.96875,-0.20751953125,0.966796875,-0.10986328125,-0.7934569716453552,-1.5563963651657104,0.1220703050494194,80.0,766974.0,1.0
44643.9181804,261860.09375,270090.1875,279339.6875,267217.8125,249351.953125,203790.4375,253810.15625,232462.09375,-0.20703125,0.96435546875,-0.1083984375,-0.7629393935203552,-1.4648436307907104,0.1220703050494194,80.0,766975.0,1.0
44643.9204796,261252.125,268667.90625,278340.75,265957.53125,247955.78125,203131.046875,253321.90625,231853.671875,-0.2080078125,0.965576171875,-0.108154296875,-0.7934569716453552,-1.4648436307907104,0.1525878757238388,80.0,766976.0,1.0
44643.9231804,260058.984375,265511.375,276014.375,262049.890625,245237.0,201752.75,252686.84375,229631.1875,-0.20849609375,0.962890625,-0.110595703125,-0.6713866591453552,-1.4953612089157104,0.0610351525247097,80.0,766977.0,1.0
44643.9255793,259940.421875,265045.46875,275619.03125,260976.390625,245010.09375,201595.21875,252794.671875,228930.0625,-0.208984375,0.96240234375,-0.11083984375,-0.6408690810203552,-1.3732908964157104,0.0610351525247097,80.0,766978.0,1.0
44643.9286725,261050.859375,267871.28125,277677.0625,264163.46875,247543.4375,202852.546875,253482.296875,230677.4375,-0.207275390625,0.96142578125,-0.113037109375,-0.4577636420726776,-1.3122557401657104,0.0915527269244194,80.0,766979.0,1.0
44643.928716,261858.65625,270114.9375,279365.78125,267258.65625,249377.625,203810.375,253812.5625,232498.46875,-0.205078125,0.96142578125,-0.11181640625,-0.4577636420726776,-1.2817381620407104,0.2136230319738388,80.0,766980.0,1.0
44643.9304464,261251.5,268701.875,278371.3125,266012.9375,247984.84375,203154.390625,253323.328125,231896.671875,-0.205810546875,0.95947265625,-0.112548828125,-0.3967284858226776,-1.2207030057907104,0.2136230319738388,80.0,766981.0,1.0
44643.940027,260061.046875,265540.875,276039.5,262093.625,245253.90625,201774.03125,252686.484375,229668.65625,-0.204833984375,0.957763671875,-0.1103515625,-0.3051757514476776,-1.1291502714157104,0.3967284858226776,80.0,766982.0,1.0
44643.9400735,259956.703125,265074.625,275645.40625,261004.015625,245026.453125,201627.046875,252810.765625,228969.84375,-0.205322265625,0.956787109375,-0.11376953125,-0.2136230319738388,-1.0070799589157104,0.4272460639476776,80.0,766983.0,1.0
44643.9417814,261067.765625,267891.125,277692.625,264164.90625,247550.5,202884.296875,253503.21875,230703.90625,-0.204833984375,0.955078125,-0.110595703125,-0.1220703050494194,-0.9765624403953552,0.6408690810203552,80.0,766984.0,1.0
44643.9506617,261867.0625,270125.125,279366.5,267236.03125,249370.46875,203826.8125,253823.375,232505.625,-0.20556640625,0.955078125,-0.11328125,0.0610351525247097,-0.9155272841453552,0.6408690810203552,80.0,766985.0,1.0
44643.9549776,261271.15625,268728.0625,278381.34375,266000.625,247991.09375,203177.8125,253343.0,231909.46875,-0.205078125,0.955322265625,-0.114990234375,0.2136230319738388,-0.8850097060203552,0.6713866591453552,80.0,766986.0,1.0
44643.9550255,260059.078125,265535.4375,276026.1875,262048.828125,245233.875,201776.265625,252688.625,229648.625,-0.20458984375,0.956787109375,-0.114501953125,0.3662109076976776,-0.7934569716453552,0.7324218153953552,80.0,766987.0,1.0
44643.9606633,259920.671875,265010.4375,275584.59375,260894.9375,244951.53125,201587.703125,252783.9375,228896.265625,-0.20556640625,0.957275390625,-0.11376953125,0.4272460639476776,-0.7019042372703552,0.8544921278953552,80.0,766988.0,1.0
44643.9648959,261016.4375,267798.5,277610.03125,264021.3125,247451.34375,202823.84375,253461.90625,230600.453125,-0.20703125,0.95947265625,-0.11474609375,0.5187987685203552,-0.6103515028953552,0.9155272841453552,80.0,766989.0,1.0
44643.9649404,261829.234375,270042.34375,279297.84375,267103.0,249285.890625,203772.28125,253790.125,232402.8125,-0.2060546875,0.959716796875,-0.111572265625,0.5187987685203552,-0.5187987685203552,0.9460448622703552,80.0,766990.0,1.0
44643.9730182,261232.0,268653.84375,278318.65625,265879.28125,247913.578125,203124.890625,253306.875,231810.046875,-0.206787109375,0.9599609375,-0.1123046875,0.6103515028953552,-0.5493163466453552,1.0681151151657104,80.0,766991.0,1.0
44643.9799252,260037.171875,265477.9375,275974.59375,261934.5625,245166.109375,201740.5,252670.390625,229566.734375,-0.205322265625,0.957763671875,-0.11328125,0.5798339247703552,-0.4272460639476776,1.0986326932907104,80.0,766992.0,1.0
44643.9799691,259898.765625,264935.15625,275520.125,260756.53125,244870.53125,201549.171875,252769.71875,228801.765625,-0.203369140625,0.957275390625,-0.11328125,0.6103515028953552,-0.3356933295726776,1.1596678495407104,80.0,766993.0,1.0
44643.9817146,260994.984375,267715.625,277537.25,263871.375,247366.671875,202783.171875,253453.78125,230495.9375,-0.203125,0.957763671875,-0.111083984375,0.6103515028953552,-0.2136230319738388,1.2512205839157104,80.0,766994.0,1.0
44643.9856532,261819.859375,269986.1875,279244.03125,266969.875,249220.265625,203745.1875,253793.875,232309.5625,-0.20166015625,0.957763671875,-0.116455078125,0.5798339247703552,-0.1525878757238388,1.1291502714157104,80.0,766995.0,1.0
44643.9986543,261237.015625,268619.96875,278281.375,265774.25,247868.78125,203106.5625,253317.96875,231732.890625,-0.20166015625,0.958251953125,-0.116455078125,0.7629393935203552,-0.0610351525247097,1.2207030057907104,80.0,766996.0,1.0
44643.9986992,260038.859375,265433.9375,275931.59375,261830.671875,245115.40625,201713.15625,252679.0625,229486.984375,-0.201171875,0.96142578125,-0.114501953125,0.7324218153953552,0.03051757626235485,1.1901854276657104,80.0,766997.0,1.0
44644.0012478,259884.28125,264869.625,275459.0625,260629.3125,244797.75,201505.1875,252765.703125,228703.59375,-0.201171875,0.964599609375,-0.11376953125,0.5798339247703552,0.0610351525247097,1.1291502714157104,80.0,766998.0,1.0
44644.0012924,260980.234375,267649.1875,277476.96875,263742.71875,247297.125,202741.5,253451.359375,230397.953125,-0.19921875,0.965087890625,-0.11474609375,0.6713866591453552,0.1831054538488388,1.1291502714157104,80.0,766999.0,1.0
44644.004419,261801.171875,269927.53125,279184.375,266854.28125,249159.46875,203704.0625,253788.0625,232219.703125,-0.201171875,0.966796875,-0.11767578125,0.5798339247703552,0.4577636420726776,1.1291502714157104,80.0,767000.0,1.0
44644.0155835,261226.015625,268579.8125,278236.21875,265678.5625,247822.296875,203073.296875,253316.265625,231657.25,-0.200439453125,0.967529296875,-0.1181640625,0.6103515028953552,0.5493163466453552,1.1901854276657104,80.0,767001.0,1.0
44644.0186518,260008.46875,265364.46875,275864.71875,261700.765625,245038.875,201659.328125,252656.703125,229383.71875,-0.203857421875,0.967041015625,-0.11572265625,0.5493163466453552,0.6103515028953552,1.0986326932907104,80.0,767002.0,1.0
44644.0186955,259858.53125,264778.15625,275379.0625,260465.6875,244702.4375,201446.0,252746.203125,228583.96875,-0.202880859375,0.96630859375,-0.116943359375,0.4882812201976776,0.7019042372703552,1.1291502714157104,80.0,767003.0,1.0
44644.0243372,260955.640625,267539.03125,277384.53125,263552.46875,247186.171875,202676.328125,253433.5625,230263.75,-0.2021484375,0.965576171875,-0.117431640625,0.2746581733226776,0.7629393935203552,1.1596678495407104,80.0,767004.0,1.0
44644.028784,261782.03125,269825.0,279101.6875,266678.59375,249058.53125,203644.78125,253774.5625,232086.578125,-0.2021484375,0.96435546875,-0.113525390625,0.1220703050494194,0.8544921278953552,1.1291502714157104,80.0,767005.0,1.0
44644.0288305,261209.109375,268495.25,278165.6875,265536.9375,247740.125,203024.125,253304.734375,231536.640625,-0.199462890625,0.960693359375,-0.116943359375,0.0610351525247097,1.0070799589157104,1.1596678495407104,80.0,767006.0,1.0
44644.0393319,260005.875,265301.1875,275809.90625,261592.046875,244979.515625,201625.4375,252658.859375,229287.515625,-0.19970703125,0.95751953125,-0.117919921875,0.1831054538488388,1.1901854276657104,1.0375975370407104,80.0,767007.0,1.0
44644.0423619,259855.046875,264711.1875,275323.53125,260361.265625,244644.140625,201410.78125,252747.640625,228491.515625,-0.20166015625,0.956787109375,-0.122314453125,0.3356933295726776,1.3122557401657104,1.0681151151657104,80.0,767008.0,1.0
44644.0424067,260946.609375,267477.53125,277331.875,263454.9375,247133.6875,202641.1875,253431.59375,230179.53125,-0.20166015625,0.95703125,-0.123779296875,0.4882812201976776,1.3427733182907104,1.0375975370407104,80.0,767009.0,1.0
44644.0480914,261779.890625,269790.40625,279068.53125,266612.96875,249033.765625,203620.921875,253778.671875,232027.296875,-0.200927734375,0.958984375,-0.123291015625,0.6713866591453552,1.6174315214157104,0.9460448622703552,80.0,767010.0,1.0
44644.0525887,261209.734375,268483.71875,278148.34375,265506.46875,247733.515625,202998.1875,253303.921875,231493.90625,-0.201416015625,0.959716796875,-0.121337890625,0.8239745497703552,1.5869139432907104,0.9155272841453552,80.0,767011.0,1.0
44644.052637,260001.40625,265289.65625,275794.25,261570.9375,244971.375,201596.65625,252649.921875,229252.375,-0.2001953125,0.9599609375,-0.11669921875,0.9460448622703552,1.6174315214157104,0.8544921278953552,80.0,767012.0,1.0
44644.0630085,259846.546875,264687.21875,275303.21875,260332.484375,244628.046875,201382.25,252739.40625,228461.65625,-0.203369140625,0.961181640625,-0.11669921875,0.9460448622703552,1.6784666776657104,0.9155272841453552,80.0,767013.0,1.0
44644.0661707,260942.140625,267453.46875,277315.78125,263430.78125,247120.546875,202617.140625,253429.28125,230154.84375,-0.20458984375,0.961181640625,-0.115478515625,0.9460448622703552,1.7700194120407104,0.9765624403953552,80.0,767014.0,1.0
44644.0662167,261782.125,269782.25,279065.375,266609.03125,249032.6875,203604.109375,253780.46875,232013.265625,-0.207275390625,0.961669921875,-0.115234375,0.7934569716453552,1.6784666776657104,0.8544921278953552,80.0,767015.0,1.0
44644.068085,261227.359375,268501.5,278164.875,265530.5,247753.625,202999.265625,253316.0,231505.796875,-0.20849609375,0.962158203125,-0.11474609375,0.8544921278953552,1.6479490995407104,0.7019042372703552,80.0,767016.0,1.0
44644.0793967,260025.09375,265309.75,275811.6875,261596.15625,244990.515625,201600.9375,252666.640625,229271.15625,-0.20947265625,0.96337890625,-0.11669921875,0.7324218153953552,1.4953612089157104,0.6103515028953552,80.0,767017.0,1.0
44644.0818223,259852.546875,264675.78125,275294.28125,260321.84375,244620.453125,201372.15625,252742.90625,228457.28125,-0.21142578125,0.967041015625,-0.11669921875,0.6713866591453552,1.3427733182907104,0.4882812201976776,80.0,767018.0,1.0
44644.0843297,260935.34375,267420.125,277289.5,263395.5625,247097.46875,202596.75,253423.734375,230131.34375,-0.208984375,0.96875,-0.114501953125,0.7324218153953552,1.2207030057907104,0.4272460639476776,80.0,767019.0,1.0
44644.0867641,261780.328125,269767.78125,279047.59375,266593.84375,249026.78125,203593.640625,253779.125,231996.90625,-0.209716796875,0.970703125,-0.116455078125,0.5493163466453552,1.0681151151657104,0.3356933295726776,80.0,767020.0,1.0
44644.0931943,261224.765625,268506.25,278160.15625,265544.1875,247766.59375,202996.3125,253314.65625,231505.34375,-0.20703125,0.971435546875,-0.11474609375,0.3356933295726776,1.0070799589157104,0.4882812201976776,80.0,767021.0,1.0
44644.0974919,260015.0,265311.65625,275803.90625,261611.359375,244999.09375,201598.53125,252659.21875,229275.4375,-0.2041015625,0.97119140625,-0.11572265625,0.03051757626235485,1.0681151151657104,0.5493163466453552,80.0,767022.0,1.0
44644.0975363,259839.40625,264665.0625,275279.28125,260318.359375,244615.359375,201365.53125,252737.53125,228450.125,-0.20263671875,0.97412109375,-0.114501953125,-0.1220703050494194,1.0375975370407104,0.5187987685203552,80.0,767023.0,1.0
44644.1068312,260929.1875,267413.34375,277276.1875,263386.34375,247092.203125,202590.5,253422.125,230122.671875,-0.201904296875,0.97412109375,-0.11083984375,-0.2441406100988388,1.0070799589157104,0.7019042372703552,80.0,767024.0,1.0
44644.1124045,261773.984375,269768.03125,279042.21875,266594.09375,249026.703125,203587.5625,253770.0,231993.140625,-0.20263671875,0.972900390625,-0.111572265625,-0.4882812201976776,1.0070799589157104,0.8239745497703552,80.0,767025.0,1.0
44644.1124493,261232.453125,268528.5,278176.5,265574.59375,247783.5,203009.1875,253313.3125,231520.8125,-0.201904296875,0.97314453125,-0.11181640625,-0.6103515028953552,0.8850097060203552,0.9460448622703552,80.0,767026.0,1.0
44644.1144397,260025.640625,265333.625,275820.0,261639.609375,245011.25,201611.765625,252662.25,229289.03125,-0.203125,0.971435546875,-0.114501953125,-0.7934569716453552,0.8850097060203552,1.0986326932907104,80.0,767027.0,1.0
44644.1205714,259830.90625,264658.78125,275267.90625,260309.859375,244598.109375,201357.84375,252725.90625,228441.015625,-0.201171875,0.968994140625,-0.113037109375,-0.8239745497703552,0.9155272841453552,1.2207030057907104,80.0,767028.0,1.0
44644.1230697,260910.859375,267389.71875,277257.125,263361.5,247065.5625,202580.484375,253410.234375,230104.609375,-0.2001953125,0.96875,-0.112060546875,-1.1291502714157104,0.8239745497703552,1.3122557401657104,80.0,767029.0,1.0
44644.1293029,261764.515625,269760.53125,279038.65625,266592.3125,249021.875,203590.6875,253772.234375,231990.828125,-0.200927734375,0.966796875,-0.109619140625,-1.2817381620407104,0.8544921278953552,1.4038084745407104,80.0,767030.0,1.0
44644.133759,261232.53125,268549.53125,278184.90625,265595.875,247799.859375,203015.890625,253324.671875,231532.4375,-0.200927734375,0.964111328125,-0.10986328125,-1.3732908964157104,0.7934569716453552,1.4953612089157104,80.0,767031.0,1.0
44644.1338045,260025.359375,265356.71875,275827.78125,261660.53125,245026.625,201618.203125,252669.859375,229301.640625,-0.2021484375,0.9619140625,-0.11376953125,-1.4343260526657104,0.8850097060203552,1.4953612089157104,80.0,767032.0,1.0
44644.1443307,259833.953125,264666.46875,275269.875,260313.796875,244602.03125,201367.5,252738.25,228448.421875,-0.20166015625,0.960205078125,-0.113037109375,-1.4953612089157104,0.9460448622703552,1.4953612089157104,80.0,767033.0,1.0
44644.1474025,260913.890625,267389.5625,277248.46875,263345.84375,247061.625,202581.375,253420.609375,230097.984375,-0.200439453125,0.957763671875,-0.111572265625,-1.4648436307907104,0.8239745497703552,1.4343260526657104,80.0,767034.0,1.0
44644.1474465,261778.8125,269778.78125,279046.4375,266597.84375,249036.171875,203597.40625,253788.328125,231995.390625,-0.20166015625,0.958251953125,-0.113037109375,-1.3427733182907104,0.8544921278953552,1.3122557401657104,80.0,767035.0,1.0
44644.1580817,261256.765625,268586.0,278215.65625,265637.34375,247835.796875,203033.6875,253344.515625,231554.609375,-0.202392578125,0.956298828125,-0.1123046875,-1.2207030057907104,0.8850097060203552,1.1901854276657104,80.0,767036.0,1.0
44644.1632796,260045.484375,265388.8125,275858.625,261704.515625,245054.53125,201630.453125,252680.40625,229326.3125,-0.20263671875,0.956787109375,-0.114013671875,-1.1901854276657104,0.9155272841453552,1.1901854276657104,80.0,767037.0,1.0
44644.168021,259838.0625,264673.53125,275282.125,260332.484375,244607.75,201361.953125,252735.484375,228456.921875,-0.203857421875,0.957763671875,-0.109619140625,-1.0986326932907104,0.8544921278953552,1.0070799589157104,80.0,767038.0,1.0
44644.1730848,260912.015625,267381.5,277252.84375,263354.34375,247063.5,202571.984375,253416.9375,230102.28125,-0.203857421875,0.9580078125,-0.1103515625,-1.0986326932907104,0.7934569716453552,0.9765624403953552,80.0,767039.0,1.0
44644.1755829,261776.9375,269780.5625,279052.0625,266615.46875,249047.265625,203593.375,253785.203125,232005.21875,-0.201416015625,0.9580078125,-0.1142578125,-1.0986326932907104,0.7324218153953552,0.8544921278953552,80.0,767040.0,1.0
44644.1781486,261259.546875,268611.125,278234.4375,265678.03125,247865.296875,203047.640625,253346.484375,231582.765625,-0.200439453125,0.9580078125,-0.11669921875,-0.9765624403953552,0.7019042372703552,0.7019042372703552,80.0,767041.0,1.0
44644.1805227,260041.640625,265404.4375,275867.375,261737.234375,245074.734375,201640.453125,252681.65625,229344.375,-0.19970703125,0.958251953125,-0.111328125,-0.9155272841453552,0.7934569716453552,0.6103515028953552,80.0,767042.0,1.0
44644.183116,259832.421875,264671.84375,275277.21875,260340.078125,244610.890625,201367.859375,252741.015625,228460.140625,-0.197509765625,0.95703125,-0.111083984375,-0.8544921278953552,0.7934569716453552,0.5798339247703552,80.0,767043.0,1.0
44644.1855512,260896.71875,267366.84375,277233.0,263335.65625,247049.734375,202569.75,253415.15625,230089.765625,-0.1962890625,0.956298828125,-0.11328125,-0.7629393935203552,0.8850097060203552,0.5493163466453552,80.0,767044.0,1.0
44644.1900103,261768.265625,269775.1875,279041.5,266607.5,249041.1875,203589.359375,253780.015625,231996.984375,-0.194091796875,0.95458984375,-0.111328125,-0.6103515028953552,0.9765624403953552,0.5187987685203552,80.0,767045.0,1.0
44644.1900555,261264.546875,268623.09375,278240.59375,265696.625,247873.265625,203044.515625,253344.25,231589.03125,-0.194091796875,0.95556640625,-0.111083984375,-0.5187987685203552,0.9460448622703552,0.5493163466453552,80.0,767046.0,1.0
44644.2034885,260041.28125,265411.40625,275868.71875,261750.203125,245075.09375,201632.953125,252671.90625,229353.3125,-0.194091796875,0.956298828125,-0.110595703125,-0.4882812201976776,1.0986326932907104,0.5493163466453552,80.0,767047.0,1.0
44644.2035323,259831.078125,264662.71875,275267.75,260331.578125,244597.921875,201357.484375,252729.84375,228460.671875,-0.19384765625,0.955810546875,-0.11083984375,-0.3051757514476776,1.1291502714157104,0.6103515028953552,80.0,767048.0,1.0
44644.2093317,260900.125,267352.90625,277219.65625,263317.40625,247032.828125,202561.078125,253409.0625,230081.09375,-0.193603515625,0.95654296875,-0.113525390625,-0.1525878757238388,1.2512205839157104,0.5798339247703552,80.0,767049.0,1.0
44644.2124023,261780.0625,269786.90625,279048.3125,266616.8125,249048.515625,203595.34375,253789.3125,232004.953125,-0.1953125,0.958984375,-0.11328125,0.0,1.3122557401657104,0.5798339247703552,80.0,767050.0,1.0
44644.2124462,261278.578125,268659.21875,278266.28125,265737.03125,247902.40625,203060.59375,253354.984375,231619.78125,-0.19677734375,0.960205078125,-0.114501953125,0.1525878757238388,1.4648436307907104,0.6103515028953552,80.0,767051.0,1.0
44644.2143838,260053.96875,265442.4375,275895.5625,261790.171875,245100.125,201644.75,252679.421875,229381.65625,-0.19677734375,0.959716796875,-0.1123046875,0.1831054538488388,1.4648436307907104,0.5798339247703552,80.0,767052.0,1.0
44644.2180798,259838.140625,264675.59375,275286.59375,260353.3125,244610.171875,201365.171875,252739.6875,228482.3125,-0.19921875,0.96044921875,-0.110107421875,0.1525878757238388,1.5869139432907104,0.7019042372703552,80.0,767053.0,1.0
44644.2224102,260882.953125,267339.3125,277214.03125,263309.1875,247019.953125,202545.171875,253399.140625,230078.859375,-0.19921875,0.961181640625,-0.11328125,0.2136230319738388,1.5563963651657104,0.7324218153953552,80.0,767054.0,1.0
44644.2224543,261780.78125,269794.40625,279061.375,266630.125,249057.546875,203593.28125,253789.859375,232015.5,-0.201416015625,0.96240234375,-0.1142578125,0.1831054538488388,1.7089842557907104,0.7324218153953552,80.0,767055.0,1.0
44644.2413982,261293.0625,268692.5625,278300.15625,265778.15625,247932.984375,203073.125,253365.34375,231649.46875,-0.201416015625,0.962890625,-0.11572265625,0.2746581733226776,1.7395018339157104,0.7324218153953552,80.0,767056.0,1.0
44644.2414462,260058.0,265462.65625,275916.46875,261819.5,245118.890625,201647.96875,252680.9375,229400.53125,-0.203857421875,0.963623046875,-0.115478515625,0.3051757514476776,1.8005369901657104,0.8239745497703552,80.0,767057.0,1.0
44644.2437575,259823.484375,264657.8125,275273.1875,260336.5,244591.84375,201337.8125,252715.625,228463.09375,-0.203857421875,0.96337890625,-0.11376953125,0.2441406100988388,1.8005369901657104,0.8544921278953552,80.0,767058.0,1.0
44644.243803,260893.953125,267334.375,277218.78125,263301.40625,247018.609375,202537.296875,253397.53125,230075.546875,-0.20361328125,0.963623046875,-0.114990234375,0.3051757514476776,1.8310545682907104,0.8239745497703552,80.0,767059.0,1.0
44644.2543415,261790.96875,269804.25,279075.5,266643.28125,249070.0625,203594.8125,253789.140625,232026.40625,-0.20458984375,0.96435546875,-0.119873046875,0.3967284858226776,1.8920897245407104,0.8239745497703552,80.0,767060.0,1.0
44644.2592706,261307.375,268722.0625,278327.875,265826.4375,247964.1875,203081.875,253366.15625,231675.75,-0.20458984375,0.9638671875,-0.115234375,0.4882812201976776,1.7395018339157104,0.7629393935203552,80.0,767061.0,1.0
44644.2593143,260087.953125,265513.53125,275962.53125,261893.875,245167.171875,201672.5625,252695.421875,229451.9375,-0.2060546875,0.967041015625,-0.1181640625,0.5493163466453552,1.7700194120407104,0.7934569716453552,80.0,767062.0,1.0
44644.2593263,259840.46875,264688.75,275305.65625,260389.703125,244622.953125,201354.890625,252725.203125,228503.6875,-0.205078125,0.969482421875,-0.11767578125,0.4272460639476776,1.6784666776657104,0.7934569716453552,80.0,767063.0,1.0
44644.2624024,260898.875,267352.1875,277237.09375,263335.125,247036.9375,202547.140625,253400.3125,230102.09375,-0.207275390625,0.97021484375,-0.114501953125,0.3356933295726776,1.6174315214157104,0.7629393935203552,80.0,767064.0,1.0
44644.2624464,261804.296875,269837.4375,279102.3125,266692.4375,249100.90625,203612.59375,253794.59375,232061.71875,-0.205322265625,0.9697265625,-0.11572265625,0.0610351525247097,1.5869139432907104,0.9155272841453552,80.0,767065.0,1.0
44644.2756512,261314.4375,268763.8125,278358.1875,265892.625,248004.15625,203101.015625,253364.71875,231716.515625,-0.205078125,0.967529296875,-0.11328125,0.0610351525247097,1.4648436307907104,0.7934569716453552,80.0,767066.0,1.0
44644.2805832,260092.875,265553.3125,275994.0,261963.0,245207.40625,201697.0625,252697.84375,229495.296875,-0.206787109375,0.967041015625,-0.11474609375,-0.1525878757238388,1.3122557401657104,0.7324218153953552,80.0,767067.0,1.0
44644.280635,259847.625,264719.6875,275332.75,260449.328125,244654.875,201380.203125,252732.078125,228546.328125,-0.205078125,0.9609375,-0.11572265625,-0.1831054538488388,1.2207030057907104,0.8544921278953552,80.0,767068.0,1.0
44644.2806481,260894.578125,267364.78125,277252.65625,263377.3125,247055.984375,202556.796875,253401.828125,230132.140625,-0.20166015625,0.95703125,-0.119384765625,-0.2136230319738388,1.1901854276657104,0.9460448622703552,80.0,767069.0,1.0
44644.2880844,261794.46875,269858.4375,279125.5625,266750.75,249132.90625,203619.3125,253797.359375,232099.984375,-0.199462890625,0.95556640625,-0.121337890625,-0.1831054538488388,1.1901854276657104,1.0070799589157104,80.0,767070.0,1.0
44644.2905376,261317.203125,268811.5625,278404.3125,265987.90625,248063.421875,203123.0,253377.59375,231782.5,-0.198974609375,0.956298828125,-0.122314453125,0.0610351525247097,1.0986326932907104,1.1901854276657104,80.0,767071.0,1.0
44644.2931909,260096.890625,265604.71875,276042.53125,262066.703125,245266.0625,201715.203125,252702.9375,229568.4375,-0.19921875,0.959716796875,-0.12060546875,0.3662109076976776,1.0681151151657104,1.1596678495407104,80.0,767072.0,1.0
44644.2993435,259865.6875,264773.9375,275389.875,260561.265625,244723.0,201407.203125,252748.265625,228636.90625,-0.2001953125,0.962158203125,-0.120361328125,0.4272460639476776,1.1291502714157104,1.3427733182907104,80.0,767073.0,1.0
44644.3030174,260913.625,267415.21875,277306.3125,263488.53125,247122.953125,202585.578125,253415.6875,230226.28125,-0.2021484375,0.9638671875,-0.117919921875,0.4272460639476776,1.0986326932907104,1.4038084745407104,80.0,767074.0,1.0
44644.3148628,261807.15625,269902.59375,279166.25,266829.59375,249178.0625,203643.171875,253800.9375,232172.140625,-0.200439453125,0.96630859375,-0.1181640625,0.4272460639476776,1.0986326932907104,1.2817381620407104,80.0,767075.0,1.0
44644.314906,261333.84375,268852.6875,278435.5,266030.75,248087.484375,203145.984375,253383.953125,231828.375,-0.198974609375,0.9638671875,-0.113525390625,0.2746581733226776,0.9765624403953552,1.3732908964157104,80.0,767076.0,1.0
44644.3176104,260089.375,265598.90625,276031.0,262036.046875,245239.59375,201713.234375,252695.328125,229562.4375,-0.19677734375,0.96240234375,-0.1171875,0.1831054538488388,1.0070799589157104,1.4343260526657104,80.0,767077.0,1.0
44644.3176559,259822.328125,264706.4375,275323.25,260434.140625,244632.515625,201373.3125,252718.671875,228561.625,-0.199462890625,0.95947265625,-0.120361328125,0.2136230319738388,1.0681151151657104,1.5563963651657104,80.0,767078.0,1.0
44644.3306008,260853.90625,267311.3125,277211.625,263299.375,247001.09375,202536.140625,253382.15625,230105.765625,-0.20068359375,0.95654296875,-0.123779296875,0.3051757514476776,1.0070799589157104,1.4648436307907104,80.0,767079.0,1.0
44644.3410684,261775.953125,269825.71875,279102.84375,266684.03125,249097.421875,203615.546875,253792.984375,232074.15625,-0.202392578125,0.954833984375,-0.120849609375,0.3356933295726776,1.0070799589157104,1.4953612089157104,80.0,767080.0,1.0
44644.3411122,261325.796875,268820.15625,278411.46875,265959.9375,248057.25,203136.5,253383.59375,231775.984375,-0.2060546875,0.959228515625,-0.119384765625,0.4882812201976776,0.7629393935203552,1.4343260526657104,80.0,767081.0,1.0
44644.3411223,260085.71875,265586.9375,276020.1875,261999.375,245225.828125,201704.921875,252689.609375,229529.890625,-0.209716796875,0.961669921875,-0.118408203125,0.5187987685203552,0.7324218153953552,1.3122557401657104,80.0,767082.0,1.0
44644.3411389,259814.546875,264685.625,275304.9375,260396.671875,244608.921875,201351.9375,252706.875,228531.21875,-0.209228515625,0.962890625,-0.116943359375,0.6103515028953552,0.4272460639476776,1.0681151151657104,80.0,767083.0,1.0
44644.3436506,260854.171875,267295.125,277199.03125,263270.84375,246984.375,202521.75,253380.1875,230090.296875,-0.2060546875,0.96142578125,-0.117919921875,0.5187987685203552,0.3356933295726776,0.8850097060203552,80.0,767084.0,1.0
44644.3436946,261780.421875,269826.78125,279100.875,266675.1875,249098.671875,203607.6875,253794.765625,232071.828125,-0.204833984375,0.9638671875,-0.1181640625,0.4272460639476776,0.2441406100988388,0.7324218153953552,80.0,767085.0,1.0
44644.3519357,261339.109375,268845.09375,278427.5625,265984.34375,248078.359375,203142.9375,253393.953125,231795.203125,-0.204833984375,0.966552734375,-0.1162109375,0.3662109076976776,0.03051757626235485,0.5493163466453552,80.0,767086.0,1.0
44644.356157,260103.859375,265612.9375,276042.4375,262033.890625,245251.75,201719.140625,252705.609375,229561.453125,-0.2041015625,0.96826171875,-0.115966796875,0.1525878757238388,-0.0610351525247097,0.3967284858226776,80.0,767087.0,1.0
44644.3562061,259810.15625,264665.59375,275292.9375,260381.203125,244594.25,201339.78125,252701.6875,228523.890625,-0.2001953125,0.96630859375,-0.116943359375,0.2441406100988388,-0.2136230319738388,0.4577636420726776,80.0,767088.0,1.0
44644.3642583,260846.84375,267259.09375,277172.46875,263228.28125,246952.546875,202496.796875,253365.171875,230056.953125,-0.199462890625,0.967041015625,-0.115478515625,-0.0610351525247097,-0.3356933295726776,0.3662109076976776,80.0,767089.0,1.0
44644.3674099,261785.703125,269810.0625,279091.0625,266649.25,249080.703125,203592.75,253786.90625,232047.5,-0.198486328125,0.9677734375,-0.1171875,-0.1831054538488388,-0.3356933295726776,0.3967284858226776,80.0,767090.0,1.0
44644.3674549,261348.59375,268850.0,278432.9375,265987.375,248077.828125,203135.875,253388.859375,231783.9375,-0.19677734375,0.96875,-0.11572265625,-0.3051757514476776,-0.2746581733226776,0.4882812201976776,80.0,767091.0,1.0
44644.3804787,260112.71875,265631.28125,276055.78125,262056.515625,245260.15625,201717.984375,252704.1875,229566.015625,-0.196044921875,0.96533203125,-0.11767578125,-0.3051757514476776,-0.3356933295726776,0.6103515028953552,80.0,767092.0,1.0
44644.3835233,259836.890625,264703.6875,275327.375,260431.1875,244627.25,201364.109375,252727.25,228564.390625,-0.1962890625,0.963134765625,-0.117919921875,-0.3356933295726776,-0.3051757514476776,0.5187987685203552,80.0,767093.0,1.0
44644.3835576,260869.375,267291.65625,277208.03125,263288.0,246992.515625,202524.515625,253397.453125,230109.078125,-0.197265625,0.9619140625,-0.11669921875,-0.3051757514476776,-0.3356933295726776,0.6713866591453552,80.0,767094.0,1.0
44644.3854497,261794.28125,269847.25,279121.0,266719.90625,249125.21875,203612.15625,253807.734375,232102.84375,-0.197509765625,0.958251953125,-0.119140625,-0.3356933295726776,-0.2441406100988388,0.5798339247703552,80.0,767095.0,1.0
44644.3879777,261355.390625,268901.6875,278472.1875,266078.9375,248139.609375,203156.890625,253407.28125,231851.96875,-0.19921875,0.95703125,-0.11767578125,-0.2441406100988388,-0.3662109076976776,0.6408690810203552,80.0,767096.0,1.0
44644.3967012,260110.578125,265677.40625,276090.46875,262147.8125,245316.046875,201732.453125,252712.859375,229632.796875,-0.20166015625,0.958251953125,-0.117431640625,-0.1525878757238388,-0.3662109076976776,0.4882812201976776,80.0,767097.0,1.0
44644.3998864,259819.28125,264719.15625,275338.375,260492.421875,244656.3125,201362.046875,252720.375,228608.640625,-0.202392578125,0.958740234375,-0.116455078125,-0.0610351525247097,-0.3967284858226776,0.6103515028953552,80.0,767098.0,1.0
44644.3999327,260856.765625,267307.125,277220.90625,263346.46875,247022.46875,202526.9375,253393.515625,230155.390625,-0.202392578125,0.95947265625,-0.1171875,-0.0610351525247097,-0.4882812201976776,0.6103515028953552,80.0,767099.0,1.0
44644.4030246,261796.703125,269888.375,279157.125,266812.59375,249181.546875,203634.0625,253814.890625,232171.6875,-0.20166015625,0.958251953125,-0.11474609375,-0.0610351525247097,-0.5187987685203552,0.5493163466453552,80.0,767100.0,1.0
44644.4156055,261374.34375,268979.65625,278539.0625,266228.78125,248229.28125,203198.109375,253420.78125,231957.109375,-0.203125,0.959228515625,-0.11767578125,0.03051757626235485,-0.4882812201976776,0.6103515028953552,80.0,767101.0,1.0
44644.4188814,260148.921875,265781.125,276185.9375,262338.25,245432.359375,201793.171875,252741.296875,229772.640625,-0.202880859375,0.954833984375,-0.1181640625,0.03051757626235485,-0.6408690810203552,0.6408690810203552,80.0,767102.0,1.0
44644.418928,259847.796875,264816.78125,275429.75,260673.5625,244764.21875,201416.3125,252741.734375,228747.859375,-0.2001953125,0.954833984375,-0.11962890625,0.1220703050494194,-0.6408690810203552,0.6408690810203552,80.0,767103.0,1.0
44644.4204807,260890.203125,267418.15625,277323.5625,263544.875,247142.171875,202587.109375,253418.71875,230311.765625,-0.20263671875,0.955078125,-0.1181640625,0.4272460639476776,-0.7934569716453552,0.5493163466453552,80.0,767104.0,1.0
44644.4231116,261836.125,270014.90625,279272.8125,267023.53125,249313.25,203699.859375,253844.125,232340.40625,-0.203857421875,0.958251953125,-0.119384765625,0.5187987685203552,-0.7934569716453552,0.4272460639476776,80.0,767105.0,1.0
44644.4318333,261402.234375,269092.03125,278636.6875,266400.96875,248338.53125,203256.40625,253441.609375,232105.359375,-0.2021484375,0.959228515625,-0.120361328125,0.5187987685203552,-0.7629393935203552,0.3662109076976776,80.0,767106.0,1.0
44644.4360245,260149.46875,265848.4375,276239.15625,262439.90625,245491.8125,201828.578125,252742.265625,229874.015625,-0.199462890625,0.9619140625,-0.115234375,0.5798339247703552,-0.8850097060203552,0.3356933295726776,80.0,767107.0,1.0
44644.4360707,259826.078125,264822.75,275432.4375,260682.859375,244760.734375,201425.53125,252730.828125,228788.09375,-0.198974609375,0.964111328125,-0.114013671875,0.6103515028953552,-1.0070799589157104,0.3051757514476776,80.0,767108.0,1.0
44644.4378886,260857.03125,267375.34375,277285.5625,263460.21875,247084.6875,202574.140625,253402.640625,230288.6875,-0.197265625,0.964111328125,-0.1162109375,0.6103515028953552,-0.9765624403953552,0.3356933295726776,80.0,767109.0,1.0
44644.44684,261796.078125,269956.5,279217.28125,266903.0,249240.203125,203678.140625,253825.34375,232281.578125,-0.197265625,0.967041015625,-0.115234375,0.5493163466453552,-1.0070799589157104,0.2746581733226776,80.0,767110.0,1.0
44644.4535979,261380.78125,269059.59375,278603.78125,266320.59375,248293.828125,203247.734375,253434.015625,232060.5625,-0.198486328125,0.968017578125,-0.11767578125,0.4882812201976776,-0.8850097060203552,0.3967284858226776,80.0,767111.0,1.0
44644.4536404,260139.359375,265824.40625,276214.46875,262375.4375,245450.859375,201820.53125,252734.578125,229830.390625,-0.19921875,0.966552734375,-0.1181640625,0.3967284858226776,-0.8239745497703552,0.3662109076976776,80.0,767112.0,1.0
44644.4594605,259815.703125,264788.875,275400.59375,260607.859375,244712.0,201410.78125,252722.421875,228737.65625,-0.19970703125,0.966064453125,-0.118896484375,0.3356933295726776,-0.8544921278953552,0.3967284858226776,80.0,767113.0,1.0
44644.4661247,260830.828125,267306.3125,277227.4375,263345.5,247011.015625,202545.703125,253389.671875,230206.796875,-0.197265625,0.965087890625,-0.11669921875,0.3967284858226776,-0.7934569716453552,0.4882812201976776,80.0,767114.0,1.0
44644.4661692,261771.484375,269884.90625,279158.5625,266777.75,249165.015625,203647.921875,253814.796875,232189.390625,-0.19873046875,0.9677734375,-0.115966796875,0.3967284858226776,-0.7324218153953552,0.4882812201976776,80.0,767115.0,1.0
44644.4743316,261363.703125,269004.875,278558.1875,266205.8125,248231.6875,203226.0,253431.875,231974.375,-0.198486328125,0.96435546875,-0.118408203125,0.3662109076976776,-0.7019042372703552,0.5493163466453552,80.0,767116.0,1.0
44644.4786748,260110.75,265751.34375,276151.25,262233.0,245369.765625,201783.875,252725.015625,229722.484375,-0.201171875,0.96533203125,-0.117431640625,0.3356933295726776,-0.7324218153953552,0.4882812201976776,80.0,767117.0,1.0
44644.478719,259771.890625,264674.4375,275306.0,260415.265625,244594.4375,201352.125,252702.046875,228597.46875,-0.201416015625,0.96728515625,-0.1181640625,0.3051757514476776,-0.7629393935203552,0.5493163466453552,80.0,767118.0,1.0
44644.4806871,260783.359375,267177.46875,277118.375,263128.6875,246880.65625,202476.328125,253363.109375,230051.3125,-0.200439453125,0.96533203125,-0.11865234375,0.1525878757238388,-0.7324218153953552,0.7019042372703552,80.0,767119.0,1.0
44644.4949258,261743.953125,269781.09375,279065.21875,266581.5,249054.234375,203589.0,253800.578125,232048.046875,-0.199462890625,0.96484375,-0.1181640625,0.2136230319738388,-0.7324218153953552,0.6408690810203552,80.0,767120.0,1.0
44644.4949698,261340.359375,268903.5625,278465.28125,266015.8125,248122.078125,203162.875,253414.078125,231832.03125,-0.201171875,0.96240234375,-0.119873046875,0.1831054538488388,-0.7629393935203552,0.7019042372703552,80.0,767121.0,1.0
44644.4968313,260079.8125,265633.34375,276046.375,262027.28125,245245.765625,201713.421875,252700.4375,229568.078125,-0.19970703125,0.962158203125,-0.119140625,0.1220703050494194,-0.7324218153953552,0.5493163466453552,80.0,767122.0,1.0
44644.4993355,259740.34375,264544.25,275186.8125,260179.859375,244452.453125,201284.703125,252681.390625,228426.4375,-0.1982421875,0.961181640625,-0.11669921875,0.1525878757238388,-0.6713866591453552,0.4882812201976776,80.0,767123.0,1.0
44644.5331204,260739.8125,267025.75,276979.96875,262866.28125,246718.484375,202393.984375,253333.875,229855.609375,-0.19873046875,0.960693359375,-0.11865234375,0.1525878757238388,-0.6713866591453552,0.4882812201976776,80.0,767124.0,1.0
44644.5355241,261708.09375,269635.375,278936.65625,266335.625,248906.0,203510.3125,253776.4375,231857.609375,-0.19970703125,0.957763671875,-0.119873046875,0.2746581733226776,-0.8239745497703552,0.4882812201976776,80.0,767125.0,1.0
44644.5379907,261313.625,268784.21875,278356.3125,265807.125,248001.734375,203093.6875,253396.640625,231659.5625,-0.201416015625,0.958740234375,-0.117919921875,0.3051757514476776,-0.7629393935203552,0.4272460639476776,80.0,767126.0,1.0
44644.5404528,260055.40625,265529.4375,275947.9375,261840.328125,245137.40625,201648.78125,252684.6875,229405.703125,-0.20166015625,0.959228515625,-0.120361328125,0.3967284858226776,-0.8544921278953552,0.3662109076976776,80.0,767127.0,1.0
44644.5429342,259700.546875,264414.53125,275071.75,259969.3125,244324.78125,201201.203125,252650.71875,228245.5625,-0.20263671875,0.96044921875,-0.121337890625,0.4577636420726776,-0.8544921278953552,0.3356933295726776,80.0,767128.0,1.0
44644.5454511,260706.640625,266900.3125,276869.8125,262656.0625,246597.6875,202315.578125,253308.84375,229682.15625,-0.201416015625,0.9609375,-0.118896484375,0.4882812201976776,-0.8544921278953552,0.3051757514476776,80.0,767129.0,1.0
44644.5479746,261678.046875,269529.3125,278838.90625,266149.84375,248803.359375,203439.0625,253752.390625,231697.203125,-0.199951171875,0.961181640625,-0.11865234375,0.3967284858226776,-0.8239745497703552,0.2441406100988388,80.0,767130.0,1.0
44644.5541842,261291.8125,268712.6875,278284.0625,265672.5,247928.6875,203036.015625,253379.390625,231530.015625,-0.20166015625,0.962158203125,-0.11962890625,0.4272460639476776,-0.8239745497703552,0.3356933295726776,80.0,767131.0,1.0
44644.5566735,260062.46875,265493.40625,275910.84375,261760.046875,245101.1875,201622.484375,252691.9375,229324.265625,-0.202880859375,0.962890625,-0.120849609375,0.3356933295726776,-0.8544921278953552,0.3662109076976776,80.0,767132.0,1.0
44644.559201,259704.03125,264365.53125,275029.65625,259892.5,244284.8125,201167.234375,252657.515625,228172.96875,-0.201904296875,0.9638671875,-0.119140625,0.3356933295726776,-0.9155272841453552,0.2441406100988388,80.0,767133.0,1.0
44644.5619577,260696.1875,266831.65625,276816.09375,262577.5625,246550.296875,202266.671875,253304.46875,229605.265625,-0.202392578125,0.9638671875,-0.11865234375,0.3051757514476776,-0.9765624403953552,0.2746581733226776,80.0,767134.0,1.0
44644.5641258,261674.828125,269491.875,278808.4375,266119.25,248785.921875,203406.96875,253751.859375,231650.71875,-0.20166015625,0.964111328125,-0.11572265625,0.2746581733226776,-0.9155272841453552,0.2746581733226776,80.0,767135.0,1.0
44644.5666154,261308.171875,268722.96875,278292.28125,265704.40625,247954.078125,203035.125,253390.734375,231529.125,-0.200927734375,0.965576171875,-0.11669921875,0.1220703050494194,-0.9155272841453552,0.3051757514476776,80.0,767136.0,1.0
44644.5697303,260070.96875,265508.0625,275921.40625,261809.75,245130.34375,201616.59375,252690.59375,229335.796875,-0.201171875,0.962646484375,-0.121337890625,-0.0610351525247097,-0.9460448622703552,0.3356933295726776,80.0,767137.0,1.0
44644.5697499,259714.765625,264382.96875,275042.53125,259946.234375,244313.609375,201166.515625,252655.90625,228192.90625,-0.2001953125,0.963623046875,-0.119873046875,-0.0610351525247097,-0.9460448622703552,0.4577636420726776,80.0,767138.0,1.0
44644.571662,260725.59375,266871.78125,276853.28125,262656.96875,246598.9375,202286.515625,253320.734375,229650.6875,-0.19921875,0.9638671875,-0.119384765625,-0.0610351525247097,-0.9460448622703552,0.4882812201976776,80.0,767139.0,1.0
44644.5741542,261718.828125,269561.5,278873.25,266235.75,248864.609375,203441.65625,253782.4375,231723.578125,-0.2001953125,0.9619140625,-0.119140625,-0.1220703050494194,-0.9765624403953552,0.5187987685203552,80.0,767140.0,1.0
44644.577302,261342.78125,268804.25,278362.375,265842.8125,248038.84375,203063.46875,253409.421875,231615.21875,-0.199951171875,0.963623046875,-0.118896484375,-0.1220703050494194,-1.0375975370407104,0.5798339247703552,80.0,767141.0,1.0
44644.5773223,260109.59375,265602.3125,275999.625,261961.03125,245220.015625,201655.75,252714.921875,229437.453125,-0.20166015625,0.963623046875,-0.119384765625,-0.1220703050494194,-1.0986326932907104,0.6408690810203552,80.0,767142.0,1.0
44644.5791644,259729.078125,264437.5,275088.21875,260048.171875,244365.546875,201183.40625,252662.875,228258.53125,-0.200439453125,0.965576171875,-0.118896484375,-0.1220703050494194,-1.1291502714157104,0.6103515028953552,80.0,767143.0,1.0
44644.5828931,260727.84375,266900.59375,276877.6875,262713.375,246628.09375,202290.453125,253319.3125,229687.703125,-0.201171875,0.965087890625,-0.11767578125,-0.3967284858226776,-1.1291502714157104,0.6408690810203552,80.0,767144.0,1.0
44644.5972831,261726.25,269603.8125,278902.9375,266293.34375,248901.796875,203458.546875,253787.34375,231765.34375,-0.200927734375,0.96484375,-0.119384765625,-0.4577636420726776,-1.1901854276657104,0.6713866591453552,80.0,767145.0,1.0
44644.5972982,261372.1875,268875.0625,278415.40625,265929.8125,248102.5,203100.921875,253431.328125,231678.171875,-0.201171875,0.96240234375,-0.118896484375,-0.4272460639476776,-1.1596678495407104,0.7629393935203552,80.0,767146.0,1.0
44644.5996985,260132.65625,265661.125,276046.1875,262045.421875,245274.015625,201679.703125,252727.96875,229494.21875,-0.201171875,0.962646484375,-0.1181640625,-0.4577636420726776,-1.2207030057907104,0.7324218153953552,80.0,767147.0,1.0
44644.5997117,259760.625,264499.75,275143.375,260142.84375,244425.71875,201214.34375,252684.96875,228331.75,-0.20166015625,0.9638671875,-0.119140625,-0.4577636420726776,-1.1901854276657104,0.6408690810203552,80.0,767148.0,1.0
44644.6016068,260746.34375,266949.03125,276918.28125,262795.5625,246676.1875,202314.40625,253333.4375,229755.734375,-0.200927734375,0.962646484375,-0.116943359375,-0.4882812201976776,-1.2512205839157104,0.7629393935203552,80.0,767149.0,1.0
44644.6053633,261728.84375,269638.125,278930.90625,266367.71875,248939.96875,203461.765625,253781.265625,231820.859375,-0.201171875,0.962158203125,-0.11767578125,-0.3967284858226776,-1.3122557401657104,0.7934569716453552,80.0,767150.0,1.0
44644.6139454,261384.0,268927.8125,278460.375,266031.46875,248158.28125,203113.265625,253429.09375,231748.34375,-0.2001953125,0.963134765625,-0.1171875,-0.5187987685203552,-1.2817381620407104,0.7629393935203552,80.0,767151.0,1.0
44644.6210379,260144.640625,265711.5625,276093.78125,262149.84375,245331.78125,201698.03125,252727.34375,229569.328125,-0.1962890625,0.962890625,-0.11767578125,-0.5798339247703552,-1.2512205839157104,0.7324218153953552,80.0,767152.0,1.0
44644.6210628,259761.34375,264524.25,275170.8125,260210.890625,244460.859375,201223.734375,252679.59375,228392.1875,-0.197021484375,0.964111328125,-0.11669921875,-0.5493163466453552,-1.2512205839157104,0.6408690810203552,80.0,767153.0,1.0
44644.6228822,260748.578125,266966.75,276941.96875,262847.21875,246706.40625,202325.40625,253337.015625,229809.921875,-0.1982421875,0.963134765625,-0.11669921875,-0.5493163466453552,-1.3122557401657104,0.5798339247703552,80.0,767154.0,1.0
44644.6254505,261747.515625,269683.03125,278975.96875,266443.28125,248991.734375,203488.59375,253801.203125,231889.875,-0.1982421875,0.9619140625,-0.1181640625,-0.6103515028953552,-1.1901854276657104,0.6408690810203552,80.0,767155.0,1.0
44644.634199,261403.84375,268987.34375,278515.1875,266126.3125,248223.640625,203141.421875,253445.90625,231824.96875,-0.197021484375,0.960205078125,-0.1171875,-0.6103515028953552,-1.1901854276657104,0.6103515028953552,80.0,767156.0,1.0
44644.6385188,260163.40625,265774.5,276147.21875,262244.96875,245392.65625,201727.28125,252742.453125,229649.34375,-0.1982421875,0.960693359375,-0.1171875,-0.6408690810203552,-1.1291502714157104,0.5798339247703552,80.0,767157.0,1.0
44644.6385391,259773.5,264564.46875,275211.3125,260285.265625,244504.3125,201250.109375,252694.171875,228458.796875,-0.197265625,0.962158203125,-0.118408203125,-0.7324218153953552,-1.1291502714157104,0.5798339247703552,80.0,767158.0,1.0
44644.6404503,260750.015625,266977.65625,276957.78125,262888.09375,246725.984375,202337.03125,253338.703125,229850.6875,-0.1962890625,0.962646484375,-0.11669921875,-0.5798339247703552,-1.0986326932907104,0.5798339247703552,80.0,767159.0,1.0
44644.6542466,261750.390625,269692.5,278988.75,266480.28125,249011.5,203498.875,253795.21875,231923.953125,-0.19775390625,0.96240234375,-0.119384765625,-0.7019042372703552,-1.0375975370407104,0.4882812201976776,80.0,767160.0,1.0
44644.6591511,261412.421875,269013.375,278541.09375,266179.34375,248253.0625,203160.015625,253445.734375,231866.546875,-0.197998046875,0.960205078125,-0.115478515625,-0.7934569716453552,-0.9765624403953552,0.4577636420726776,80.0,767161.0,1.0
44644.6591866,260173.6875,265803.90625,276179.34375,262302.46875,245424.21875,201749.09375,252745.84375,229692.171875,-0.1962890625,0.96142578125,-0.116455078125,-0.7934569716453552,-0.8850097060203552,0.4272460639476776,80.0,767162.0,1.0
44644.6591959,259772.609375,264573.0625,275223.5625,260308.25,244509.671875,201253.59375,252686.84375,228479.0,-0.196044921875,0.964111328125,-0.115966796875,-0.7324218153953552,-0.8850097060203552,0.3662109076976776,80.0,767163.0,1.0
44644.6625276,260738.5625,266968.8125,276957.4375,262885.5,246713.5625,202327.46875,253325.921875,229851.765625,-0.1962890625,0.964599609375,-0.1162109375,-0.7324218153953552,-0.7934569716453552,0.3662109076976776,80.0,767164.0,1.0
44644.66256,261747.796875,269704.75,279006.03125,266497.625,249018.921875,203505.578125,253795.21875,231938.15625,-0.196044921875,0.963623046875,-0.11767578125,-0.6408690810203552,-0.7629393935203552,0.3356933295726776,80.0,767165.0,1.0
44644.6704087,261427.359375,269055.03125,278580.0,266231.90625,248288.46875,203185.234375,253458.328125,231905.078125,-0.19775390625,0.964599609375,-0.1162109375,-0.7629393935203552,-0.7324218153953552,0.3662109076976776,80.0,767166.0,1.0
44644.6729974,260186.296875,265840.5625,276211.53125,262353.53125,245453.375,201767.234375,252751.390625,229731.6875,-0.19677734375,0.96533203125,-0.115966796875,-0.6408690810203552,-0.7019042372703552,0.3356933295726776,80.0,767167.0,1.0
44644.6767534,259775.921875,264586.90625,275240.46875,260338.640625,244522.28125,201262.359375,252686.75,228506.28125,-0.197509765625,0.966064453125,-0.11474609375,-0.7629393935203552,-0.4882812201976776,0.2136230319738388,80.0,767168.0,1.0
44644.690503,260753.859375,266985.78125,276981.3125,262912.6875,246734.65625,202348.65625,253341.75,229892.359375,-0.198974609375,0.964599609375,-0.117919921875,-0.8544921278953552,-0.5493163466453552,0.2746581733226776,80.0,767169.0,1.0
44644.6935929,261747.703125,269708.5,279014.25,266509.59375,249026.875,203506.203125,253792.625,231964.453125,-0.198974609375,0.96337890625,-0.118408203125,-0.8239745497703552,-0.3662109076976776,0.3051757514476776,80.0,767170.0,1.0
44644.6936262,261422.265625,269071.125,278589.125,266253.90625,248299.640625,203177.09375,253442.953125,231929.40625,-0.199951171875,0.966064453125,-0.115966796875,-0.8544921278953552,-0.3967284858226776,0.1525878757238388,80.0,767171.0,1.0
44644.7074443,260194.078125,265876.875,276236.375,262392.9375,245476.078125,201774.03125,252747.90625,229766.90625,-0.1982421875,0.966796875,-0.115234375,-0.7629393935203552,-0.4882812201976776,0.1220703050494194,80.0,767172.0,1.0
44644.7074769,259776.28125,264604.6875,275249.21875,260351.4375,244523.265625,201263.078125,252677.625,228525.59375,-0.198974609375,0.96630859375,-0.114013671875,-0.7934569716453552,-0.5187987685203552,0.0915527269244194,80.0,767173.0,1.0
44644.7147688,260736.59375,266974.4375,276963.59375,262890.59375,246711.765625,202336.5,253322.4375,229883.953125,-0.2001953125,0.965576171875,-0.117919921875,-0.7629393935203552,-0.5493163466453552,0.1220703050494194,80.0,767174.0,1.0
44644.7148035,261747.25,269715.65625,279016.65625,266508.90625,249028.21875,203509.609375,253788.78125,231967.125,-0.202392578125,0.967041015625,-0.114013671875,-0.7934569716453552,-0.3967284858226776,0.2441406100988388,80.0,767175.0,1.0
44644.7148114,261432.625,269096.5,278610.75,266280.71875,248323.25,203194.53125,253448.5,231950.765625,-0.200439453125,0.967041015625,-0.11328125,-0.8239745497703552,-0.2746581733226776,0.2136230319738388,80.0,767176.0,1.0
44644.7148194,260198.90625,265892.25,276249.6875,262417.90625,245492.4375,201782.265625,252742.71875,229784.4375,-0.19970703125,0.968017578125,-0.11181640625,-0.8544921278953552,-0.2441406100988388,0.1831054538488388,80.0,767177.0,1.0
44644.7167643,259768.859375,264597.375,275247.71875,260359.65625,244523.71875,201258.15625,252670.484375,228531.3125,-0.20068359375,0.966064453125,-0.1123046875,-0.9155272841453552,-0.3051757514476776,0.0915527269244194,80.0,767178.0,1.0
44644.7228838,260722.734375,266957.09375,276955.03125,262884.34375,246702.46875,202324.875,253315.8125,229881.359375,-0.199462890625,0.963623046875,-0.11279296875,-0.9460448622703552,-0.3662109076976776,0.1220703050494194,80.0,767179.0,1.0
44644.7330413,261748.953125,269724.59375,279024.875,266522.9375,249039.03125,203516.21875,253801.296875,231983.046875,-0.2001953125,0.963623046875,-0.115478515625,-0.9765624403953552,-0.3356933295726776,0.2136230319738388,80.0,767180.0,1.0
44644.736651,261440.671875,269123.875,278634.71875,266320.6875,248352.125,203215.453125,253471.75,231983.046875,-0.2001953125,0.9619140625,-0.11279296875,-0.8239745497703552,-0.3662109076976776,0.2746581733226776,80.0,767181.0,1.0
44644.7366859,260203.90625,265919.875,276273.28125,262459.46875,245519.265625,201802.109375,252763.015625,229814.84375,-0.20166015625,0.959716796875,-0.112548828125,-0.6713866591453552,-0.3051757514476776,0.3051757514476776,80.0,767182.0,1.0
44644.7366945,259780.21875,264613.71875,275265.0625,260385.140625,244541.59375,201281.140625,252691.21875,228556.4375,-0.201416015625,0.9599609375,-0.115478515625,-0.5493163466453552,-0.3051757514476776,0.3967284858226776,80.0,767183.0,1.0
44644.7393574,260728.546875,266952.34375,276953.40625,262880.9375,246702.03125,202336.3125,253328.78125,229885.28125,-0.201416015625,0.958984375,-0.111572265625,-0.3967284858226776,-0.3051757514476776,0.4882812201976776,80.0,767184.0,1.0
44644.7505657,261756.828125,269731.3125,279032.3125,266531.0625,249048.609375,203534.015625,253815.609375,231996.015625,-0.201416015625,0.9580078125,-0.113037109375,-0.2746581733226776,-0.3051757514476776,0.4577636420726776,80.0,767185.0,1.0
44644.7579248,261446.84375,269144.875,278646.5,266342.15625,248366.421875,203231.640625,253474.25,232002.53125,-0.201416015625,0.957763671875,-0.11279296875,-0.2136230319738388,-0.3051757514476776,0.5493163466453552,80.0,767186.0,1.0
44644.75796,260200.78125,265928.625,276275.09375,262471.8125,245521.9375,201809.796875,252757.65625,229828.25,-0.20068359375,0.95556640625,-0.115234375,-0.03051757626235485,-0.3051757514476776,0.5187987685203552,80.0,767187.0,1.0
44644.7579685,259762.515625,264597.375,275248.25,260368.234375,244521.65625,201267.71875,252675.84375,228550.796875,-0.200927734375,0.95556640625,-0.118408203125,0.0915527269244194,-0.2746581733226776,0.5187987685203552,80.0,767188.0,1.0
44644.7605381,260705.484375,266919.28125,276928.84375,262845.4375,246671.359375,202312.09375,253308.578125,229866.515625,-0.201416015625,0.956298828125,-0.11669921875,0.2136230319738388,-0.2746581733226776,0.6103515028953552,80.0,767189.0,1.0
44644.7642974,261741.078125,269701.78125,279014.96875,266504.25,249026.15625,203506.109375,253794.765625,231967.40625,-0.200927734375,0.95654296875,-0.1171875,0.3051757514476776,-0.2746581733226776,0.7324218153953552,80.0,767190.0,1.0
44644.775416,261453.640625,269149.96875,278658.75,266357.625,248376.078125,203221.71875,253471.03125,231994.484375,-0.203125,0.95849609375,-0.114013671875,0.4577636420726776,-0.3356933295726776,0.7324218153953552,80.0,767191.0,1.0
44644.7823757,260200.15625,265925.78125,276279.03125,262481.65625,245521.3125,201789.6875,252741.375,229815.640625,-0.201904296875,0.959228515625,-0.114990234375,0.5187987685203552,-0.3967284858226776,0.7934569716453552,80.0,767192.0,1.0
44644.7824098,259755.53125,264575.90625,275235.90625,260347.953125,244498.953125,201243.40625,252652.328125,228525.40625,-0.201416015625,0.957275390625,-0.113037109375,0.5798339247703552,-0.3356933295726776,0.8239745497703552,80.0,767193.0,1.0
44644.7960907,260699.5,266892.8125,276910.3125,262805.5625,246639.53125,202292.328125,253289.984375,229835.9375,-0.200439453125,0.958251953125,-0.110595703125,0.5798339247703552,-0.3662109076976776,0.8239745497703552,80.0,767194.0,1.0
44644.7961255,261741.890625,269693.125,279006.375,266475.0,249009.625,203498.0625,253787.703125,231951.65625,-0.19970703125,0.956298828125,-0.114990234375,0.5798339247703552,-0.4577636420726776,0.8544921278953552,80.0,767195.0,1.0
44644.7985966,261458.65625,269157.40625,278662.15625,266350.09375,248376.4375,203221.890625,253467.453125,231993.0625,-0.19873046875,0.95703125,-0.1162109375,0.6408690810203552,-0.5493163466453552,0.9460448622703552,80.0,767196.0,1.0
44644.7986339,260212.21875,265949.21875,276294.21875,262492.375,245534.90625,201801.296875,252749.34375,229827.4375,-0.2001953125,0.960693359375,-0.118408203125,0.7324218153953552,-0.3967284858226776,1.0375975370407104,80.0,767197.0,1.0
44644.8086407,259765.640625,264589.15625,275248.78125,260355.90625,244511.203125,201256.453125,252671.828125,228540.421875,-0.2001953125,0.9638671875,-0.12109375,0.8544921278953552,-0.3967284858226776,0.8850097060203552,80.0,767198.0,1.0
