Time,FZ,C3,CZ,C4,PZ,PO7,OZ,PO8,AccX,AccY,AccZ,Gyro1,Gyro2,Gyro3,Battery,Counter,Validation
44922.2197339,261603.84375,268292.5625,278100.59375,263716.4375,245492.796875,166688.953125,254820.984375,229209.546875,-0.21044921875,0.947265625,-0.1787109375,0.1220703050494194,-0.8850097060203552,0.1220703050494194,80.0,836611.0,1.0
44922.2261071,261118.71875,267009.03125,277085.46875,261947.34375,244393.53125,166097.25,254671.859375,228070.78125,-0.21240234375,0.946044921875,-0.178955078125,0.0,-0.8850097060203552,0.1525878757238388,80.0,836612.0,1.0
44922.230437,261598.390625,268237.125,277883.25,262983.40625,245422.609375,166623.40625,255007.40625,228588.265625,-0.2109375,0.945068359375,-0.18017578125,0.0610351525247097,-0.9155272841453552,0.1831054538488388,80.0,836613.0,1.0
44922.2304786,262372.84375,270272.46875,279390.03125,265384.34375,247156.390625,167536.078125,255365.296875,230038.0,-0.21142578125,0.945068359375,-0.18212890625,0.0610351525247097,-0.7629393935203552,0.0915527269244194,80.0,836614.0,1.0
44922.2423092,262384.8125,270335.0625,279545.3125,265875.8125,247232.5625,167585.515625,255257.734375,230450.875,-0.210693359375,0.945556640625,-0.183837890625,0.0,-0.8239745497703552,0.0610351525247097,80.0,836615.0,1.0
44922.2451875,261596.609375,268298.71875,278101.9375,263712.6875,245492.890625,166682.328125,254820.53125,229205.609375,-0.211669921875,0.946533203125,-0.180419921875,0.0,-0.8850097060203552,0.0915527269244194,80.0,836616.0,1.0
44922.2452333,261113.71875,267019.0625,277090.5625,261945.5625,244392.375,166097.515625,254677.21875,228071.21875,-0.21142578125,0.94677734375,-0.179931640625,-0.0610351525247097,-0.8544921278953552,0.0915527269244194,80.0,836617.0,1.0
44922.2472277,261593.03125,268239.1875,277888.78125,262984.125,245420.5625,166626.265625,255011.875,228597.5625,-0.212158203125,0.947021484375,-0.177490234375,-0.1220703050494194,-0.7934569716453552,0.1525878757238388,80.0,836618.0,1.0
44922.2497304,262375.78125,270274.71875,279396.1875,265386.375,247153.625,167533.75,255364.484375,230048.640625,-0.214111328125,0.94775390625,-0.179931640625,-0.2136230319738388,-0.7934569716453552,0.1220703050494194,80.0,836619.0,1.0
44922.2584983,262396.0,270343.1875,279555.78125,265881.4375,247235.609375,167592.046875,255259.96875,230460.890625,-0.212646484375,0.9482421875,-0.178955078125,-0.2746581733226776,-0.7629393935203552,0.1831054538488388,80.0,836620.0,1.0
44922.2654107,261612.96875,268310.4375,278119.5625,263730.40625,245506.921875,166699.765625,254830.015625,229221.4375,-0.216064453125,0.946044921875,-0.18017578125,-0.4577636420726776,-0.8239745497703552,0.2441406100988388,80.0,836621.0,1.0
44922.2654559,261125.25,267020.9375,277100.75,261958.96875,244400.0625,166108.78125,254680.078125,228084.0,-0.217529296875,0.94580078125,-0.177490234375,-0.3967284858226776,-0.9155272841453552,0.2441406100988388,80.0,836622.0,1.0
44922.2679729,261589.265625,268231.5,277887.4375,262982.40625,245416.265625,166627.703125,255005.515625,228600.6875,-0.216064453125,0.94482421875,-0.1748046875,-0.4272460639476776,-1.0070799589157104,0.1525878757238388,80.0,836623.0,1.0
44922.2680183,262373.1875,270268.90625,279397.1875,265386.84375,247153.359375,167539.03125,255360.921875,230050.0625,-0.214111328125,0.943359375,-0.17919921875,-0.4272460639476776,-0.9765624403953552,0.1831054538488388,80.0,836624.0,1.0
44922.2922322,262398.125,270342.40625,279560.96875,265888.9375,247238.921875,167602.78125,255263.546875,230467.78125,-0.214111328125,0.943359375,-0.176513671875,-0.3967284858226776,-0.9765624403953552,0.0915527269244194,80.0,836625.0,1.0
44922.2996411,261604.921875,268303.75,278112.65625,263720.09375,245496.90625,166696.90625,254826.265625,229218.140625,-0.215576171875,0.94287109375,-0.179931640625,-0.3356933295726776,-1.0070799589157104,0.3356933295726776,80.0,836626.0,1.0
44922.2996847,261120.515625,267020.65625,277099.0625,261947.890625,244395.59375,166109.140625,254685.984375,228082.21875,-0.21533203125,0.94091796875,-0.177001953125,-0.3356933295726776,-1.0681151151657104,0.3051757514476776,80.0,836627.0,1.0
44922.2996967,261594.28125,268238.03125,277893.96875,262981.15625,245419.84375,166630.296875,255016.25,228604.4375,-0.215087890625,0.941650390625,-0.178955078125,-0.2441406100988388,-1.0681151151657104,0.3051757514476776,80.0,836628.0,1.0
44922.3035029,262369.4375,270267.90625,279397.625,265387.0,247151.390625,167535.453125,255366.453125,230051.859375,-0.21484375,0.940185546875,-0.1796875,-0.1525878757238388,-1.0681151151657104,0.3967284858226776,80.0,836629.0,1.0
44922.3035467,262386.59375,270334.15625,279554.625,265883.125,247232.921875,167591.234375,255262.125,230465.0,-0.213134765625,0.940185546875,-0.180419921875,-0.1525878757238388,-1.0375975370407104,0.3662109076976776,80.0,836630.0,1.0
44922.3035584,261592.21875,268287.5625,278104.0,263712.875,245489.484375,166678.84375,254817.953125,229209.90625,-0.212158203125,0.9384765625,-0.1806640625,0.0,-1.0070799589157104,0.4577636420726776,80.0,836631.0,1.0
44922.30605,261111.125,267002.6875,277089.5,261941.71875,244385.578125,166083.84375,254670.25,228067.5625,-0.211181640625,0.9384765625,-0.181884765625,0.1220703050494194,-1.0070799589157104,0.5798339247703552,80.0,836632.0,1.0
44922.3084786,261593.125,268224.34375,277889.6875,262982.9375,245417.421875,166609.109375,255007.484375,228592.640625,-0.210205078125,0.9384765625,-0.18115234375,0.1220703050494194,-0.9765624403953552,0.6408690810203552,80.0,836633.0,1.0
44922.3109162,262377.03125,270262.46875,279401.75,265399.09375,247158.359375,167523.734375,255363.859375,230050.515625,-0.2119140625,0.938720703125,-0.181396484375,0.1525878757238388,-0.9460448622703552,0.6408690810203552,80.0,836634.0,1.0
44922.313488,262392.0625,270335.59375,279561.0625,265895.84375,247239.359375,167580.515625,255257.5625,230467.15625,-0.2099609375,0.941162109375,-0.180419921875,0.2441406100988388,-0.8850097060203552,0.6408690810203552,80.0,836635.0,1.0
44922.3274343,261603.75,268299.53125,278117.21875,263731.1875,245501.015625,166680.0,254823.40625,229222.421875,-0.20751953125,0.941162109375,-0.179443359375,0.3051757514476776,-0.7934569716453552,0.7019042372703552,80.0,836636.0,1.0
44922.3304047,261116.3125,267017.15625,277097.375,261952.265625,244398.453125,166094.296875,254675.703125,228084.453125,-0.2080078125,0.94384765625,-0.1796875,0.2746581733226776,-0.7934569716453552,0.7324218153953552,80.0,836637.0,1.0
44922.3304499,261595.984375,268234.90625,277893.96875,262987.96875,245427.53125,166619.65625,255011.78125,228608.640625,-0.208251953125,0.94287109375,-0.179931640625,0.2746581733226776,-0.7629393935203552,0.8239745497703552,80.0,836638.0,1.0
44922.336456,262391.96875,270278.28125,279415.40625,265410.25,247172.3125,167533.84375,255373.078125,230067.859375,-0.2099609375,0.943603515625,-0.177490234375,0.3356933295726776,-0.6713866591453552,0.9155272841453552,80.0,836639.0,1.0
44922.3365003,262410.125,270353.84375,279578.6875,265916.03125,247255.71875,167592.671875,255268.28125,230480.828125,-0.209716796875,0.944580078125,-0.18017578125,0.3967284858226776,-0.5493163466453552,0.9765624403953552,80.0,836640.0,1.0
44922.3441454,261608.578125,268303.5625,278124.8125,263739.34375,245508.078125,166685.375,254825.8125,229229.578125,-0.21044921875,0.945068359375,-0.178466796875,0.3051757514476776,-0.4882812201976776,0.9765624403953552,80.0,836641.0,1.0
44922.3441962,261118.8125,267014.5,277101.84375,261956.28125,244399.96875,166091.890625,254676.234375,228086.875,-0.208984375,0.9443359375,-0.181884765625,0.2746581733226776,-0.3662109076976776,0.8544921278953552,80.0,836642.0,1.0
44922.3504185,261594.640625,268230.875,277895.9375,262988.21875,245423.859375,166618.40625,255010.171875,228605.421875,-0.208740234375,0.945556640625,-0.18017578125,0.2441406100988388,-0.3356933295726776,0.8850097060203552,80.0,836643.0,1.0
44922.3504642,262381.15625,270272.84375,279410.9375,265410.71875,247165.15625,167530.453125,255365.03125,230057.84375,-0.207763671875,0.946533203125,-0.182373046875,0.2746581733226776,-0.3356933295726776,0.8850097060203552,80.0,836644.0,1.0
44922.3547685,262401.71875,270358.03125,279577.34375,265921.21875,247253.125,167592.40625,255260.6875,230472.953125,-0.207275390625,0.947509765625,-0.18408203125,0.2136230319738388,-0.2441406100988388,0.7934569716453552,80.0,836645.0,1.0
44922.3634847,261608.234375,268313.75,278128.21875,263754.34375,245510.5,166683.5,254821.703125,229221.0,-0.207763671875,0.94677734375,-0.184814453125,0.1831054538488388,-0.2441406100988388,0.8544921278953552,80.0,836646.0,1.0
44922.366556,261121.9375,267018.875,277103.53125,261971.75,244403.1875,166089.734375,254673.015625,228080.609375,-0.2080078125,0.945068359375,-0.1826171875,0.2441406100988388,-0.2441406100988388,0.7019042372703552,80.0,836647.0,1.0
44922.3666004,261599.546875,268235.96875,277897.375,263002.0,245428.6875,166615.28125,255006.953125,228603.1875,-0.20849609375,0.943115234375,-0.182861328125,0.3051757514476776,-0.1220703050494194,0.5798339247703552,80.0,836648.0,1.0
44922.3748105,262386.25,270276.875,279413.34375,265420.8125,247168.375,167525.34375,255358.953125,230057.671875,-0.20947265625,0.94091796875,-0.18115234375,0.1525878757238388,-0.1220703050494194,0.5798339247703552,80.0,836649.0,1.0
44922.3773097,262415.65625,270366.90625,279587.53125,265937.40625,247264.03125,167591.953125,255261.046875,230483.0625,-0.2099609375,0.938232421875,-0.181396484375,0.3356933295726776,-0.0610351525247097,0.4577636420726776,80.0,836650.0,1.0
44922.3859886,261623.6875,268324.9375,278141.375,263768.84375,245525.515625,166692.796875,254826.078125,229239.859375,-0.2109375,0.936279296875,-0.181884765625,0.1525878757238388,-0.03051757626235485,0.3356933295726776,80.0,836651.0,1.0
44922.388445,261129.546875,267027.4375,277113.1875,261981.953125,244415.625,166099.390625,254677.484375,228098.3125,-0.20947265625,0.93408203125,-0.18115234375,0.2746581733226776,-0.0610351525247097,0.2441406100988388,80.0,836652.0,1.0
44922.3910951,261605.90625,268244.46875,277908.90625,263019.0625,245442.109375,166623.859375,255012.5,228623.578125,-0.208984375,0.935302734375,-0.181884765625,0.2746581733226776,-0.03051757626235485,0.1525878757238388,80.0,836653.0,1.0
44922.3934373,262396.78125,270287.3125,279427.75,265445.84375,247182.40625,167533.84375,255366.71875,230078.859375,-0.21044921875,0.938720703125,-0.18408203125,0.5187987685203552,-0.03051757626235485,0.03051757626235485,80.0,836654.0,1.0
44922.3978055,262414.3125,270365.0,279592.09375,265955.1875,247269.578125,167591.421875,255262.203125,230498.4375,-0.211181640625,0.942138671875,-0.18798828125,0.6103515028953552,0.1220703050494194,-0.0915527269244194,80.0,836655.0,1.0
44922.3978496,261617.96875,268322.78125,278142.4375,263782.6875,245528.828125,166685.8125,254823.671875,229247.375,-0.2080078125,0.943603515625,-0.185546875,0.7629393935203552,0.1220703050494194,0.0,80.0,836656.0,1.0
44922.4059462,261130.25,267030.40625,277120.59375,262001.4375,244424.921875,166091.703125,254678.375,228108.859375,-0.208740234375,0.945068359375,-0.185302734375,0.8239745497703552,0.0,0.0,80.0,836657.0,1.0
44922.4091715,261613.765625,268250.09375,277917.9375,263039.71875,245453.90625,166618.21875,255015.890625,228639.21875,-0.209716796875,0.947021484375,-0.18359375,0.7934569716453552,0.03051757626235485,-0.0610351525247097,80.0,836658.0,1.0
44922.4092165,262401.71875,270292.40625,279433.3125,265459.875,247192.25,167526.25,255371.640625,230092.71875,-0.21044921875,0.9462890625,-0.1826171875,0.7629393935203552,-0.03051757626235485,-0.1220703050494194,80.0,836659.0,1.0
44922.4196831,262426.03125,270379.9375,279608.09375,265978.71875,247286.03125,167586.765625,255270.078125,230517.03125,-0.21484375,0.9453125,-0.18017578125,0.7629393935203552,-0.1525878757238388,-0.1220703050494194,80.0,836660.0,1.0
44922.4228121,261628.609375,268338.0625,278157.375,263802.53125,245541.96875,166679.375,254828.234375,229268.734375,-0.218017578125,0.947265625,-0.183837890625,0.5798339247703552,-0.2746581733226776,-0.2441406100988388,80.0,836661.0,1.0
44922.4228555,261137.40625,267044.09375,277134.71875,262019.859375,244435.828125,166085.359375,254681.78125,228133.1875,-0.21923828125,0.94873046875,-0.18212890625,0.4882812201976776,-0.4272460639476776,-0.2746581733226776,80.0,836662.0,1.0
44922.4309849,261611.984375,268262.15625,277928.21875,263054.28125,245459.359375,166611.34375,255015.0,228655.046875,-0.220703125,0.95166015625,-0.1826171875,0.4272460639476776,-0.4577636420726776,-0.3051757514476776,80.0,836663.0,1.0
44922.4376784,262397.5,270299.375,279439.90625,265467.65625,247192.25,167514.703125,255363.59375,230102.28125,-0.22021484375,0.951416015625,-0.178955078125,0.3967284858226776,-0.6103515028953552,-0.3662109076976776,80.0,836664.0,1.0
44922.4377224,262425.59375,270385.03125,279617.125,265995.34375,247291.75,167582.75,255266.046875,230530.359375,-0.2197265625,0.951416015625,-0.17724609375,0.1831054538488388,-0.7019042372703552,-0.3662109076976776,80.0,836665.0,1.0
44922.440415,261636.65625,268356.65625,278175.6875,263837.40625,245561.90625,166687.96875,254835.828125,229291.625,-0.21875,0.951904296875,-0.177978515625,0.0,-1.0070799589157104,-0.3662109076976776,80.0,836666.0,1.0
44922.4404585,261144.5625,267064.03125,277150.375,262057.5,244456.484375,166097.078125,254686.0625,228156.6875,-0.21875,0.952392578125,-0.17822265625,-0.2441406100988388,-1.0986326932907104,-0.2441406100988388,80.0,836667.0,1.0
44922.4434207,261619.9375,268271.8125,277944.125,263092.65625,245480.09375,166620.015625,255016.96875,228684.828125,-0.217529296875,0.951904296875,-0.1787109375,-0.4577636420726776,-1.0986326932907104,-0.0915527269244194,80.0,836668.0,1.0
44922.4509896,262406.28125,270313.15625,279461.28125,265510.75,247216.65625,167530.71875,255368.328125,230137.0625,-0.2158203125,0.951904296875,-0.177978515625,-0.5187987685203552,-1.1596678495407104,0.03051757626235485,80.0,836669.0,1.0
44922.4604674,262435.59375,270404.625,279640.4375,266041.46875,247315.625,167593.828125,255264.0,230560.578125,-0.216796875,0.952880859375,-0.179443359375,-0.5798339247703552,-1.2512205839157104,0.2746581733226776,80.0,836670.0,1.0
44922.4605123,261644.890625,268373.75,278198.21875,263878.71875,245584.4375,166692.078125,254827.421875,229323.359375,-0.216064453125,0.951904296875,-0.179931640625,-0.7629393935203552,-1.4648436307907104,0.3967284858226776,80.0,836671.0,1.0
44922.4622201,261161.640625,267094.40625,277184.8125,262111.59375,244491.796875,166114.953125,254693.21875,228203.453125,-0.2158203125,0.94775390625,-0.1787109375,-1.0070799589157104,-1.4953612089157104,0.4882812201976776,80.0,836672.0,1.0
44922.4659854,261636.484375,268310.1875,277979.28125,263154.25,245518.09375,166643.625,255023.21875,228732.65625,-0.213134765625,0.948486328125,-0.17919921875,-1.1901854276657104,-1.4038084745407104,0.6713866591453552,80.0,836673.0,1.0
44922.4747367,262414.3125,270340.6875,279488.46875,265565.03125,247247.046875,167545.734375,255369.671875,230176.671875,-0.212158203125,0.947021484375,-0.179931640625,-1.1901854276657104,-1.5563963651657104,0.9155272841453552,80.0,836674.0,1.0
44922.4791876,262442.84375,270430.71875,279664.875,266080.09375,247343.609375,167614.3125,255271.328125,230596.609375,-0.214111328125,0.943359375,-0.181884765625,-1.3122557401657104,-1.4648436307907104,0.8850097060203552,80.0,836675.0,1.0
44922.4792329,261651.234375,268398.25,278222.0,263915.03125,245612.875,166719.34375,254840.390625,229359.84375,-0.213134765625,0.941650390625,-0.178466796875,-1.3122557401657104,-1.5869139432907104,0.8850097060203552,80.0,836676.0,1.0
44922.4903657,261157.609375,267099.34375,277194.0,262127.328125,244504.578125,166126.390625,254693.578125,228224.46875,-0.211669921875,0.94189453125,-0.179931640625,-1.4038084745407104,-1.5563963651657104,0.9460448622703552,80.0,836677.0,1.0
44922.4904087,261631.828125,268315.09375,277986.78125,263156.40625,245527.484375,166654.609375,255030.640625,228745.625,-0.210693359375,0.94189453125,-0.1796875,-1.4343260526657104,-1.5258787870407104,1.0070799589157104,80.0,836678.0,1.0
44922.4928086,262414.59375,270346.875,279496.96875,265563.40625,247258.046875,167564.234375,255382.46875,230186.59375,-0.21142578125,0.939453125,-0.17529296875,-1.3122557401657104,-1.5563963651657104,0.9765624403953552,80.0,836679.0,1.0
44922.4928531,262445.78125,270438.96875,279674.6875,266083.84375,247350.578125,167629.515625,255278.65625,230607.78125,-0.2099609375,0.9375,-0.174072265625,-1.2817381620407104,-1.5258787870407104,1.0375975370407104,80.0,836680.0,1.0
44922.498508,261647.921875,268397.78125,278223.4375,263916.625,245612.25,166720.859375,254836.359375,229361.71875,-0.209228515625,0.939453125,-0.174560546875,-1.2512205839157104,-1.4648436307907104,1.0375975370407104,80.0,836681.0,1.0
44922.502346,261155.109375,267101.65625,277193.84375,262130.625,244508.515625,166123.8125,254689.5625,228227.953125,-0.20947265625,0.940673828125,-0.173828125,-1.2512205839157104,-1.3427733182907104,0.9765624403953552,80.0,836682.0,1.0
44922.5083948,261628.796875,268312.84375,277985.8125,263161.75,245531.515625,166642.1875,255025.375,228753.84375,-0.208740234375,0.941162109375,-0.17431640625,-1.3122557401657104,-1.3122557401657104,1.0070799589157104,80.0,836683.0,1.0
44922.5178492,262417.53125,270355.0,279503.125,265574.5,247262.96875,167547.875,255379.953125,230195.703125,-0.20849609375,0.94140625,-0.173828125,-1.1901854276657104,-1.2817381620407104,0.8850097060203552,80.0,836684.0,1.0
44922.5178932,262446.6875,270448.53125,279681.3125,266100.3125,247356.03125,167612.796875,255276.0625,230613.234375,-0.209716796875,0.942138671875,-0.17333984375,-1.2207030057907104,-1.2817381620407104,0.7629393935203552,80.0,836685.0,1.0
44922.5204051,261654.265625,268414.78125,278240.15625,263947.65625,245627.265625,166712.640625,254841.453125,229380.046875,-0.208740234375,0.942138671875,-0.1767578125,-1.1596678495407104,-1.1596678495407104,0.6713866591453552,80.0,836686.0,1.0
44922.5204494,261161.453125,267120.4375,277216.28125,262170.875,244529.609375,166129.703125,254699.296875,228261.65625,-0.207763671875,0.94287109375,-0.177490234375,-1.2207030057907104,-1.2207030057907104,0.4882812201976776,80.0,836687.0,1.0
44922.5285235,261641.3125,268342.4375,278013.0625,263209.15625,245558.328125,166660.0625,255034.671875,228793.890625,-0.208251953125,0.942626953125,-0.176025390625,-1.1596678495407104,-1.1291502714157104,0.3967284858226776,80.0,836688.0,1.0
44922.5334723,262426.84375,270379.0625,279524.3125,265620.625,247286.21875,167563.25,255382.1875,230232.1875,-0.207275390625,0.94140625,-0.172119140625,-1.2817381620407104,-0.9460448622703552,0.3051757514476776,80.0,836689.0,1.0
44922.5359952,262453.3125,270465.5,279699.8125,266146.53125,247379.734375,167626.203125,255277.5,230653.828125,-0.205078125,0.941650390625,-0.171630859375,-1.0986326932907104,-0.8850097060203552,0.2136230319738388,80.0,836690.0,1.0
44922.5404199,261660.53125,268437.125,278259.46875,263990.46875,245656.234375,166725.25,254843.609375,229425.015625,-0.205078125,0.94140625,-0.174560546875,-1.1291502714157104,-0.7019042372703552,0.1525878757238388,80.0,836691.0,1.0
44922.5404669,261168.609375,267149.03125,277243.28125,262227.375,244568.59375,166144.453125,254705.5625,228316.734375,-0.2060546875,0.939697265625,-0.1767578125,-1.0681151151657104,-0.6103515028953552,0.1220703050494194,80.0,836692.0,1.0
44922.5498423,261647.390625,268371.34375,278045.625,263274.3125,245602.328125,166678.21875,255043.4375,228857.375,-0.204833984375,0.939453125,-0.1787109375,-1.0070799589157104,-0.4882812201976776,0.1220703050494194,80.0,836693.0,1.0
44922.5522364,262429.59375,270399.875,279555.875,265686.96875,247325.640625,167580.328125,255384.875,230297.1875,-0.205322265625,0.939453125,-0.176025390625,-0.9765624403953552,-0.2136230319738388,0.0915527269244194,80.0,836694.0,1.0
44922.5547524,262464.3125,270497.875,279738.625,266221.90625,247425.15625,167647.75,255283.578125,230718.109375,-0.205078125,0.940185546875,-0.17626953125,-0.8544921278953552,-0.1220703050494194,0.1831054538488388,80.0,836695.0,1.0
44922.5609469,261675.1875,268476.03125,278302.5625,264079.4375,245709.78125,166755.734375,254854.875,229497.53125,-0.2060546875,0.941650390625,-0.174072265625,-0.7629393935203552,-0.0915527269244194,0.2441406100988388,80.0,836696.0,1.0
44922.5655159,261182.734375,267190.53125,277284.9375,262315.09375,244623.578125,166176.5625,254717.453125,228391.65625,-0.209228515625,0.94091796875,-0.173583984375,-0.6103515028953552,0.0,0.1831054538488388,80.0,836697.0,1.0
44922.5655615,261655.25,268407.90625,278078.0625,263351.65625,245648.0,166703.875,255048.4375,228922.828125,-0.20849609375,0.941650390625,-0.174072265625,-0.5187987685203552,0.0915527269244194,0.0915527269244194,80.0,836698.0,1.0
44922.5758912,262432.46875,270432.4375,279578.6875,265743.65625,247358.1875,167596.515625,255388.90625,230352.265625,-0.2109375,0.94189453125,-0.174072265625,-0.4272460639476776,0.1525878757238388,0.1220703050494194,80.0,836699.0,1.0
44922.5789309,262461.71875,270519.96875,279753.03125,266259.1875,247444.640625,167657.40625,255282.765625,230761.921875,-0.2138671875,0.943603515625,-0.17431640625,-0.2746581733226776,0.2136230319738388,0.2136230319738388,80.0,836700.0,1.0
44922.5789653,261670.984375,268491.40625,278316.875,264108.3125,245724.0,166766.375,254854.328125,229533.03125,-0.214599609375,0.942626953125,-0.17724609375,-0.2136230319738388,0.1831054538488388,0.3051757514476776,80.0,836701.0,1.0
44922.5807992,261178.453125,267202.875,277293.6875,262330.0,244630.90625,166182.640625,254715.03125,228416.78125,-0.214599609375,0.94384765625,-0.177490234375,-0.2136230319738388,0.1831054538488388,0.4272460639476776,80.0,836702.0,1.0
44922.5947961,261648.375,268409.875,278078.59375,263345.6875,245645.0625,166701.46875,255043.96875,228936.6875,-0.21630859375,0.945068359375,-0.173828125,-0.1525878757238388,0.0915527269244194,0.3967284858226776,80.0,836703.0,1.0
44922.5978227,262433.46875,270431.8125,279583.59375,265733.1875,247354.78125,167602.234375,255388.546875,230357.171875,-0.218505859375,0.942626953125,-0.174072265625,0.0,-0.03051757626235485,0.3967284858226776,80.0,836704.0,1.0
44922.5978667,262468.78125,270520.9375,279761.0625,266244.875,247444.375,167667.859375,255286.703125,230760.40625,-0.220703125,0.942138671875,-0.177001953125,-0.0915527269244194,0.0,0.4272460639476776,80.0,836705.0,1.0
44922.5997068,261674.828125,268493.46875,278320.28125,264091.6875,245724.0,166775.40625,254855.234375,229527.21875,-0.221435546875,0.942626953125,-0.177978515625,0.03051757626235485,-0.1525878757238388,0.4577636420726776,80.0,836706.0,1.0
44922.6022445,261182.296875,267207.53125,277298.53125,262319.71875,244636.375,166198.546875,254720.671875,228412.578125,-0.219970703125,0.94482421875,-0.174560546875,0.1525878757238388,-0.3356933295726776,0.5187987685203552,80.0,836707.0,1.0
44922.6086181,261651.859375,268413.96875,278082.90625,263340.125,245653.1875,166721.3125,255051.390625,228933.015625,-0.218994140625,0.945556640625,-0.178466796875,0.0610351525247097,-0.4272460639476776,0.5493163466453552,80.0,836708.0,1.0
44922.6153234,262436.03125,270442.4375,279588.25,265727.9375,247364.171875,167622.625,255400.96875,230355.65625,-0.21826171875,0.9462890625,-0.178466796875,0.2136230319738388,-0.5187987685203552,0.5798339247703552,80.0,836709.0,1.0
44922.6153683,262455.0,270517.28125,279753.65625,266226.375,247440.4375,167674.390625,255293.6875,230751.828125,-0.21728515625,0.947021484375,-0.180908203125,0.2136230319738388,-0.5493163466453552,0.6103515028953552,80.0,836710.0,1.0
44922.6240391,261665.359375,268491.3125,278315.09375,264072.375,245723.46875,166779.78125,254864.265625,229520.15625,-0.2158203125,0.945556640625,-0.177001953125,0.2441406100988388,-0.6408690810203552,0.5493163466453552,80.0,836711.0,1.0
44922.6240832,261168.796875,267193.75,277284.84375,262285.5625,244625.734375,166193.453125,254722.8125,228401.21875,-0.216796875,0.9482421875,-0.177978515625,0.2746581733226776,-0.7629393935203552,0.6103515028953552,80.0,836712.0,1.0
44922.6259509,261643.1875,268401.28125,278070.28125,263301.15625,245636.921875,166718.625,255053.0,228918.171875,-0.216796875,0.947021484375,-0.1767578125,0.2136230319738388,-0.8850097060203552,0.5798339247703552,80.0,836713.0,1.0
44922.6348473,262432.03125,270425.625,279574.65625,265686.53125,247339.859375,167614.3125,255400.515625,230326.953125,-0.216796875,0.947021484375,-0.177978515625,0.1831054538488388,-0.8850097060203552,0.5187987685203552,80.0,836714.0,1.0
44922.6378227,262456.25,270504.3125,279738.1875,266177.0,247409.765625,167661.875,255290.90625,230707.46875,-0.214599609375,0.947265625,-0.176513671875,0.1525878757238388,-0.9460448622703552,0.5187987685203552,80.0,836715.0,1.0
44922.6378673,261657.671875,268472.53125,278291.84375,264016.84375,245687.796875,166771.921875,254863.28125,229472.3125,-0.21533203125,0.947998046875,-0.1748046875,0.1220703050494194,-1.0070799589157104,0.4882812201976776,80.0,836716.0,1.0
44922.6434934,261149.84375,267162.625,277247.03125,262203.84375,244575.390625,166178.515625,254715.578125,228336.046875,-0.215576171875,0.94677734375,-0.175537109375,-0.0610351525247097,-1.0681151151657104,0.6103515028953552,80.0,836717.0,1.0
44922.6565367,261617.4375,268349.96875,278017.34375,263193.40625,245570.21875,166690.640625,255042.890625,228833.5,-0.21142578125,0.945556640625,-0.177978515625,-0.1220703050494194,-1.1596678495407104,0.6103515028953552,80.0,836718.0,1.0
44922.6565798,262396.15625,270354.03125,279499.625,265542.21875,247250.625,167567.734375,255377.09375,230212.15625,-0.209228515625,0.9423828125,-0.181640625,-0.2441406100988388,-1.2207030057907104,0.6103515028953552,80.0,836719.0,1.0
44922.6609872,262422.28125,270427.40625,279657.8125,266020.09375,247311.6875,167609.84375,255264.984375,230577.75,-0.2080078125,0.939453125,-0.18359375,-0.3662109076976776,-1.1901854276657104,0.7629393935203552,80.0,836720.0,1.0
44922.6610344,261619.046875,268384.21875,278201.34375,263845.71875,245578.8125,166701.90625,254829.296875,229328.8125,-0.2080078125,0.943115234375,-0.183837890625,-0.2746581733226776,-1.0070799589157104,0.8544921278953552,80.0,836721.0,1.0
44922.6610461,261112.46875,267073.5,277155.03125,262034.34375,244466.5,166107.265625,254685.0,228194.609375,-0.20556640625,0.947265625,-0.183349609375,-0.0915527269244194,-1.0070799589157104,0.9460448622703552,80.0,836722.0,1.0
44922.6722694,261582.296875,268262.25,277923.84375,263026.03125,245460.875,166616.4375,255012.234375,228687.234375,-0.207763671875,0.948974609375,-0.18408203125,-0.03051757626235485,-1.0375975370407104,0.8850097060203552,80.0,836723.0,1.0
44922.6808892,262364.4375,270273.375,279416.75,265392.90625,247148.875,167500.3125,255354.03125,230077.421875,-0.20947265625,0.948974609375,-0.1826171875,0.0,-0.9155272841453552,0.8850097060203552,80.0,836724.0,1.0
44922.6840909,262383.46875,270341.5,279571.96875,265873.3125,247212.0,167543.859375,255245.046875,230446.3125,-0.208984375,0.948486328125,-0.179931640625,-0.1525878757238388,-0.7629393935203552,0.8239745497703552,80.0,836725.0,1.0
44922.6841354,261592.21875,268313.75,278127.15625,263709.28125,245493.328125,166651.03125,254821.796875,229208.828125,-0.204833984375,0.9462890625,-0.18017578125,-0.2746581733226776,-0.8544921278953552,0.8544921278953552,80.0,836726.0,1.0
44922.6970928,261088.6875,267005.625,277086.8125,261904.703125,244387.28125,166060.859375,254680.703125,228082.84375,-0.205322265625,0.943115234375,-0.1796875,-0.4577636420726776,-0.7629393935203552,0.8850097060203552,80.0,836727.0,1.0
44922.6971412,261555.03125,268196.0,277857.9375,262898.8125,245383.09375,166575.3125,255010.078125,228579.765625,-0.20556640625,0.9404296875,-0.17724609375,-0.5493163466453552,-0.7019042372703552,0.8850097060203552,80.0,836728.0,1.0
44922.6971553,262341.90625,270209.28125,279353.09375,265272.46875,247073.953125,167460.078125,255351.34375,229970.765625,-0.206298828125,0.939453125,-0.180419921875,-0.5493163466453552,-0.5493163466453552,0.8239745497703552,80.0,836729.0,1.0
44922.7003512,262370.25,270288.40625,279517.53125,265769.9375,247145.390625,167511.40625,255246.5625,230353.0625,-0.21142578125,0.940673828125,-0.181884765625,-0.4577636420726776,-0.5187987685203552,0.8850097060203552,80.0,836730.0,1.0
44922.7003942,261570.765625,268255.46875,278066.09375,263601.8125,245419.84375,166614.65625,254815.796875,229117.109375,-0.2138671875,0.943115234375,-0.181884765625,-0.4577636420726776,-0.5187987685203552,0.7324218153953552,80.0,836731.0,1.0
44922.7022328,261062.9375,266944.3125,277016.96875,261792.40625,244307.96875,166018.03125,254670.25,227988.78125,-0.213623046875,0.943603515625,-0.181640625,-0.3662109076976776,-0.6103515028953552,0.4577636420726776,80.0,836732.0,1.0
44922.7047623,261536.796875,268139.21875,277788.65625,262792.4375,245306.828125,166530.875,255001.046875,228489.5625,-0.214599609375,0.9453125,-0.177978515625,-0.4272460639476776,-0.5798339247703552,0.2136230319738388,80.0,836733.0,1.0
44922.7135636,262322.59375,270156.4375,279284.4375,265172.4375,247001.453125,167418.78125,255338.5625,229882.515625,-0.213623046875,0.94580078125,-0.17919921875,-0.3967284858226776,-0.6103515028953552,0.0915527269244194,80.0,836734.0,1.0
44922.7259222,262346.09375,270230.46875,279451.0,265670.53125,247071.8125,167464.375,255228.40625,230259.71875,-0.213134765625,0.94580078125,-0.17724609375,-0.4577636420726776,-0.6713866591453552,-0.0915527269244194,80.0,836735.0,1.0
44922.7259653,261556.90625,268205.84375,278014.84375,263516.1875,245360.390625,166570.84375,254806.40625,229028.765625,-0.212158203125,0.946044921875,-0.175048828125,-0.6103515028953552,-0.7019042372703552,-0.2746581733226776,80.0,836736.0,1.0
44922.7259772,261048.453125,266901.84375,276970.5,261704.78125,244255.046875,165981.921875,254665.421875,227899.375,-0.211181640625,0.94580078125,-0.17822265625,-0.6713866591453552,-0.6713866591453552,-0.2441406100988388,80.0,836737.0,1.0
44922.7290821,261520.515625,268091.40625,277742.15625,262699.71875,245252.65625,166496.28125,254993.09375,228396.75,-0.207275390625,0.947021484375,-0.18017578125,-0.6713866591453552,-0.5187987685203552,-0.3051757514476776,80.0,836738.0,1.0
44922.7291348,262322.21875,270124.34375,279257.625,265103.0625,246964.96875,167395.4375,255343.75,229802.234375,-0.20751953125,0.943603515625,-0.1796875,-0.5493163466453552,-0.4577636420726776,-0.3051757514476776,80.0,836739.0,1.0
44922.7310361,262347.90625,270206.84375,279430.0,265614.5625,247043.65625,167445.515625,255237.4375,230187.75,-0.20751953125,0.944091796875,-0.178955078125,-0.4577636420726776,-0.5187987685203552,-0.2441406100988388,80.0,836740.0,1.0
44922.7447847,261547.96875,268174.8125,277983.03125,263453.84375,245327.21875,166551.171875,254809.984375,228957.0625,-0.208740234375,0.943603515625,-0.179443359375,-0.5493163466453552,-0.5187987685203552,-0.1831054538488388,80.0,836741.0,1.0
44922.7478268,261037.1875,266861.96875,276934.0,261641.75,244217.859375,165958.484375,254665.953125,227826.515625,-0.20947265625,0.9443359375,-0.177490234375,-0.5493163466453552,-0.4577636420726776,0.0,80.0,836742.0,1.0
44922.747871,261509.4375,268059.65625,277707.84375,262643.125,245217.0625,166472.765625,254995.421875,228331.84375,-0.209716796875,0.944091796875,-0.176513671875,-0.5493163466453552,-0.3967284858226776,0.0610351525247097,80.0,836743.0,1.0
44922.7508435,262308.375,270098.3125,279225.6875,265056.21875,246931.625,167370.578125,255343.5625,229745.90625,-0.2080078125,0.94287109375,-0.1767578125,-0.5493163466453552,-0.1831054538488388,0.0610351525247097,80.0,836744.0,1.0
44922.7614665,262344.40625,270187.71875,279410.59375,265585.40625,247023.265625,167427.625,255239.859375,230145.734375,-0.208251953125,0.94189453125,-0.178466796875,-0.4577636420726776,-0.1525878757238388,0.1525878757238388,80.0,836745.0,1.0
44922.7615122,261556.453125,268167.5625,277976.21875,263436.96875,245317.65625,166545.8125,254820.09375,228926.046875,-0.2099609375,0.94091796875,-0.17626953125,-0.3662109076976776,-0.0915527269244194,0.3051757514476776,80.0,836746.0,1.0
44922.76794,261051.21875,266862.3125,276932.40625,261632.453125,244217.671875,165960.015625,254679.09375,227804.609375,-0.214111328125,0.940185546875,-0.177001953125,-0.2441406100988388,-0.0610351525247097,0.5187987685203552,80.0,836747.0,1.0
44922.7679856,261508.890625,268043.84375,277695.84375,262620.75,245205.796875,166468.5625,254996.84375,228303.234375,-0.216552734375,0.942626953125,-0.178955078125,-0.2136230319738388,-0.1525878757238388,0.4882812201976776,80.0,836748.0,1.0
44922.77658,262298.4375,270073.90625,279206.46875,265025.625,246910.4375,167358.0625,255336.140625,229714.515625,-0.216064453125,0.94287109375,-0.177001953125,-0.1831054538488388,-0.1525878757238388,0.5187987685203552,80.0,836749.0,1.0
44922.7766242,262335.8125,270173.5,279392.875,265563.21875,247002.53125,167411.09375,255230.828125,230114.703125,-0.21728515625,0.943115234375,-0.177001953125,-0.1525878757238388,-0.2441406100988388,0.5798339247703552,80.0,836750.0,1.0
44922.7784114,261542.6875,268154.6875,277954.59375,263412.71875,245292.96875,166518.171875,254802.390625,228892.6875,-0.218505859375,0.9462890625,-0.17626953125,-0.03051757626235485,-0.3662109076976776,0.4882812201976776,80.0,836751.0,1.0
44922.7854257,261033.78125,266845.96875,276908.53125,261599.015625,244186.03125,165932.296875,254658.53125,227770.015625,-0.21923828125,0.94384765625,-0.17724609375,-0.0915527269244194,-0.4577636420726776,0.6103515028953552,80.0,836752.0,1.0
44922.7854706,261507.375,268039.0,277685.3125,262602.96875,245186.046875,166451.125,254988.09375,228282.21875,-0.220703125,0.943359375,-0.1787109375,-0.0610351525247097,-0.4577636420726776,0.7629393935203552,80.0,836753.0,1.0
44922.7873461,262314.8125,270080.875,279212.5625,265032.6875,246907.75,167355.46875,255337.9375,229705.140625,-0.219482421875,0.943603515625,-0.17724609375,-0.0610351525247097,-0.5798339247703552,0.6713866591453552,80.0,836754.0,1.0
44922.7984152,262344.59375,270178.6875,279394.59375,265567.15625,246998.234375,167412.421875,255228.765625,230106.390625,-0.216064453125,0.94287109375,-0.17529296875,-0.0915527269244194,-0.7629393935203552,0.7324218153953552,80.0,836755.0,1.0
44922.8016002,261541.0,268154.15625,277952.71875,263411.75,245288.40625,166522.109375,254798.28125,228888.125,-0.213623046875,0.94287109375,-0.17578125,-0.03051757626235485,-0.8239745497703552,0.7629393935203552,80.0,836756.0,1.0
44922.8016472,261035.578125,266849.09375,276911.65625,261604.296875,244188.265625,165939.625,254662.734375,227773.40625,-0.213623046875,0.943115234375,-0.177734375,0.1220703050494194,-0.8239745497703552,0.7629393935203552,80.0,836757.0,1.0
44922.8034944,261500.484375,268035.53125,277677.25,262600.90625,245180.859375,166445.671875,254987.90625,228274.4375,-0.2138671875,0.94384765625,-0.17626953125,0.1525878757238388,-0.8239745497703552,0.7934569716453552,80.0,836758.0,1.0
44922.8121745,262306.125,270078.1875,279204.25,265034.40625,246904.796875,167347.078125,255335.4375,229700.21875,-0.212890625,0.94287109375,-0.177001953125,0.1831054538488388,-0.8239745497703552,0.7629393935203552,80.0,836759.0,1.0
44922.8147574,262341.8125,270180.65625,279397.09375,265581.46875,247007.171875,167409.03125,255234.21875,230110.421875,-0.2109375,0.94140625,-0.176513671875,0.1831054538488388,-0.8544921278953552,0.6408690810203552,80.0,836760.0,1.0
44922.8183976,261546.796875,268167.5625,277962.8125,263435.625,245305.046875,166524.34375,254809.71875,228894.21875,-0.210693359375,0.94189453125,-0.1748046875,0.2441406100988388,-0.8850097060203552,0.6408690810203552,80.0,836761.0,1.0
44922.8328247,261042.90625,266868.5,276920.6875,261630.484375,244204.265625,165945.703125,254671.859375,227782.171875,-0.2119140625,0.94140625,-0.179931640625,0.2746581733226776,-0.7934569716453552,0.6713866591453552,80.0,836762.0,1.0
44922.8328682,261514.703125,268057.875,277693.15625,262630.78125,245202.3125,166462.203125,255000.6875,228293.578125,-0.210205078125,0.94140625,-0.179931640625,0.3662109076976776,-0.7019042372703552,0.7019042372703552,80.0,836763.0,1.0
44922.83489,262319.28125,270099.125,279221.9375,265069.96875,246929.203125,167362.8125,255349.65625,229724.359375,-0.209716796875,0.941650390625,-0.17822265625,0.4577636420726776,-0.7629393935203552,0.6408690810203552,80.0,836764.0,1.0
44922.8372069,262354.15625,270206.21875,279414.4375,265622.34375,247033.015625,167421.546875,255243.515625,230137.5,-0.209716796875,0.9423828125,-0.180419921875,0.5493163466453552,-0.7324218153953552,0.7019042372703552,80.0,836765.0,1.0
44922.8397517,261547.875,268185.0,277971.21875,263468.0625,245325.875,166529.796875,254809.453125,228924.15625,-0.21044921875,0.94287109375,-0.176513671875,0.6713866591453552,-0.6408690810203552,0.6408690810203552,80.0,836766.0,1.0
44922.849086,261029.859375,266872.875,276920.5,261648.453125,244216.875,165943.65625,254663.09375,227805.953125,-0.209228515625,0.943115234375,-0.177734375,0.6408690810203552,-0.6408690810203552,0.6713866591453552,80.0,836767.0,1.0
44922.8491304,261502.09375,268058.5,277694.15625,262652.84375,245212.234375,166459.625,254990.953125,228314.671875,-0.21142578125,0.944580078125,-0.18115234375,0.6408690810203552,-0.5798339247703552,0.6713866591453552,80.0,836768.0,1.0
44922.8510922,262309.625,270102.25,279229.4375,265103.15625,246943.15625,167360.75,255340.625,229751.171875,-0.208984375,0.94384765625,-0.177490234375,0.7629393935203552,-0.5187987685203552,0.5493163466453552,80.0,836769.0,1.0
44922.8547198,262350.5625,270222.0625,279431.15625,265668.09375,247057.328125,167424.234375,255239.859375,230172.28125,-0.208984375,0.945556640625,-0.18115234375,0.6713866591453552,-0.5493163466453552,0.3967284858226776,80.0,836770.0,1.0
44922.8654056,261547.78125,268208.25,277989.65625,263510.8125,245348.671875,166533.375,254807.484375,228955.8125,-0.21044921875,0.945068359375,-0.177978515625,0.7324218153953552,-0.3967284858226776,0.4577636420726776,80.0,836771.0,1.0
44922.8654498,261028.6875,266886.625,276935.09375,261684.84375,244236.0,165946.421875,254659.421875,227838.578125,-0.209228515625,0.94580078125,-0.17529296875,0.7019042372703552,-0.3967284858226776,0.5187987685203552,80.0,836772.0,1.0
44922.867238,261511.9375,268082.09375,277717.3125,262698.1875,245242.453125,166469.625,254996.140625,228357.140625,-0.21044921875,0.94580078125,-0.177978515625,0.5798339247703552,-0.5187987685203552,0.3967284858226776,80.0,836773.0,1.0
44922.8711022,262321.4375,270130.59375,279251.0,265147.9375,246969.625,167370.046875,255341.328125,229788.28125,-0.21240234375,0.94384765625,-0.17822265625,0.5187987685203552,-0.5493163466453552,0.3356933295726776,80.0,836774.0,1.0
44922.8747544,262353.0,270234.3125,279443.21875,265694.65625,247069.84375,167427.625,255233.234375,230200.359375,-0.2138671875,0.942626953125,-0.177978515625,0.4577636420726776,-0.6103515028953552,0.3662109076976776,80.0,836775.0,1.0
44922.8840385,261559.5,268223.625,278012.25,263544.96875,245370.75,166549.296875,254814.1875,228993.1875,-0.212646484375,0.945068359375,-0.177978515625,0.3967284858226776,-0.5798339247703552,0.2441406100988388,80.0,836776.0,1.0
44922.8840816,261048.625,266914.34375,276964.59375,261724.359375,244263.71875,165966.53125,254672.75,227874.171875,-0.212890625,0.944091796875,-0.17626953125,0.3967284858226776,-0.6713866591453552,0.2746581733226776,80.0,836777.0,1.0
44922.8865817,261515.59375,268097.03125,277732.59375,262722.5,245256.9375,166476.78125,254996.40625,228380.21875,-0.21142578125,0.943359375,-0.179443359375,0.4272460639476776,-0.6713866591453552,0.1220703050494194,80.0,836778.0,1.0
44922.8866256,262320.34375,270135.875,279264.40625,265174.3125,246984.640625,167371.03125,255340.171875,229812.78125,-0.2119140625,0.943359375,-0.176513671875,0.3662109076976776,-0.6713866591453552,0.1525878757238388,80.0,836779.0,1.0
44922.8946156,262365.59375,270263.28125,279475.125,265748.03125,247105.515625,167442.828125,255241.109375,230243.984375,-0.21337890625,0.94384765625,-0.177978515625,0.3051757514476776,-0.7934569716453552,0.0915527269244194,80.0,836780.0,1.0
44922.8972729,261563.53125,268253.03125,278038.8125,263599.6875,245404.28125,166561.625,254812.578125,229038.515625,-0.214111328125,0.94482421875,-0.176513671875,0.3662109076976776,-0.7324218153953552,0.1831054538488388,80.0,836781.0,1.0
44922.931012,261054.53125,266951.28125,276995.4375,261786.953125,244303.953125,165984.859375,254673.828125,227931.203125,-0.2138671875,0.945068359375,-0.178466796875,0.2746581733226776,-0.7324218153953552,0.1220703050494194,80.0,836782.0,1.0
44922.9340755,261534.203125,268147.625,277780.875,262804.21875,245313.890625,166505.9375,255009.359375,228457.734375,-0.21630859375,0.9453125,-0.17724609375,0.3051757514476776,-0.8239745497703552,0.1831054538488388,80.0,836783.0,1.0
44922.9341187,262342.09375,270187.1875,279316.25,265261.9375,247041.953125,167399.828125,255351.96875,229894.046875,-0.213623046875,0.9453125,-0.177490234375,0.2136230319738388,-0.7629393935203552,0.2441406100988388,80.0,836784.0,1.0
44922.93613,262373.09375,270297.875,279514.125,265828.78125,247147.09375,167453.28125,255236.453125,230309.96875,-0.21484375,0.94482421875,-0.17919921875,0.1831054538488388,-0.7629393935203552,0.2136230319738388,80.0,836785.0,1.0
44922.9396861,261571.65625,268284.5,278077.34375,263678.90625,245446.65625,166568.34375,254809.0,229105.21875,-0.21533203125,0.944580078125,-0.181640625,0.0610351525247097,-0.8239745497703552,0.2136230319738388,80.0,836786.0,1.0
44922.9397298,261062.21875,266982.125,277031.46875,261859.640625,244346.59375,165989.34375,254669.53125,227999.25,-0.214599609375,0.943359375,-0.177734375,0.0,-0.8239745497703552,0.2441406100988388,80.0,836787.0,1.0
44922.9397423,261531.78125,268169.8125,277806.09375,262869.125,245349.203125,166513.265625,255001.765625,228518.171875,-0.21240234375,0.942626953125,-0.18115234375,-0.0610351525247097,-0.8850097060203552,0.3967284858226776,80.0,836788.0,1.0
44922.9434877,262340.90625,270217.6875,279342.09375,265327.5625,247083.609375,167416.625,255349.109375,229958.421875,-0.2109375,0.946533203125,-0.18115234375,-0.2136230319738388,-0.9155272841453552,0.4272460639476776,80.0,836789.0,1.0
44922.943531,262388.75,270350.09375,279557.65625,265913.1875,247212.546875,167489.234375,255254.96875,230397.046875,-0.212158203125,0.946044921875,-0.180419921875,-0.1831054538488388,-0.8544921278953552,0.4577636420726776,80.0,836790.0,1.0
44922.943543,261583.375,268338.15625,278120.28125,263759.8125,245509.421875,166605.53125,254824.296875,229189.34375,-0.212890625,0.94140625,-0.177490234375,-0.2441406100988388,-0.9155272841453552,0.4882812201976776,80.0,836791.0,1.0
44922.9460187,261077.421875,267034.5,277074.5625,261939.296875,244409.453125,166032.34375,254688.21875,228080.34375,-0.214599609375,0.945068359375,-0.17724609375,-0.1220703050494194,-0.8239745497703552,0.6103515028953552,80.0,836792.0,1.0
44922.9485758,261549.75,268219.96875,277852.9375,262954.0625,245414.125,166553.046875,255022.515625,228604.796875,-0.2138671875,0.943115234375,-0.17724609375,-0.03051757626235485,-0.8850097060203552,0.6713866591453552,80.0,836793.0,1.0
44922.9510046,262353.875,270256.84375,279386.53125,265409.8125,247140.03125,167447.5625,255361.890625,230035.5,-0.2138671875,0.943603515625,-0.176513671875,-0.1220703050494194,-0.9155272841453552,0.6713866591453552,80.0,836794.0,1.0
44922.9547032,262388.65625,270375.28125,279589.125,265974.875,247249.734375,167509.078125,255253.625,230455.796875,-0.212890625,0.945068359375,-0.17822265625,-0.1525878757238388,-0.9765624403953552,0.7019042372703552,80.0,836795.0,1.0
44922.960938,261578.28125,268358.53125,278144.40625,263806.3125,245538.21875,166620.46875,254822.59375,229240.03125,-0.21240234375,0.943603515625,-0.1796875,-0.1220703050494194,-0.9155272841453552,0.6713866591453552,80.0,836796.0,1.0
44922.9716485,261067.3125,267043.90625,277092.1875,261975.953125,244429.125,166036.09375,254680.890625,228123.25,-0.2119140625,0.943115234375,-0.177490234375,-0.1831054538488388,-0.8850097060203552,0.7629393935203552,80.0,836797.0,1.0
44922.9716939,261541.96875,268228.90625,277866.71875,262983.9375,245431.46875,166553.140625,255012.3125,228641.1875,-0.2119140625,0.943603515625,-0.17529296875,-0.1525878757238388,-0.7934569716453552,0.8239745497703552,80.0,836798.0,1.0
44922.9784348,262368.0,270286.59375,279417.90625,265457.1875,247174.625,167465.09375,255365.03125,230087.171875,-0.21142578125,0.94482421875,-0.177978515625,-0.1831054538488388,-0.8239745497703552,0.7629393935203552,80.0,836799.0,1.0
44922.9784751,262413.6875,270410.875,279628.46875,266032.25,247292.5625,167535.359375,255264.71875,230513.734375,-0.212158203125,0.945556640625,-0.179931640625,-0.2441406100988388,-0.8239745497703552,0.8239745497703552,80.0,836800.0,1.0
44922.9784864,261599.28125,268390.71875,278176.3125,263849.03125,245574.6875,166646.125,254829.65625,229286.171875,-0.210205078125,0.945556640625,-0.1806640625,-0.3662109076976776,-0.8544921278953552,0.8239745497703552,80.0,836801.0,1.0
44922.9847358,261080.90625,267072.34375,277117.75,262010.203125,244459.15625,166063.1875,254683.65625,228162.140625,-0.210205078125,0.94775390625,-0.177490234375,-0.4272460639476776,-0.7019042372703552,0.7324218153953552,80.0,836802.0,1.0
44922.9878298,261552.171875,268255.09375,277892.0,263015.21875,245458.640625,166580.234375,255010.890625,228673.5625,-0.208251953125,0.947265625,-0.177978515625,-0.4577636420726776,-0.6408690810203552,0.7019042372703552,80.0,836803.0,1.0
44922.9878735,262369.09375,270303.6875,279432.21875,265474.4375,247192.25,167479.125,255359.578125,230107.90625,-0.2080078125,0.948486328125,-0.178466796875,-0.5798339247703552,-0.6713866591453552,0.7019042372703552,80.0,836804.0,1.0
44922.9960904,262420.40625,270430.09375,279646.34375,266051.125,247312.5,167544.921875,255261.21875,230533.578125,-0.20654296875,0.9482421875,-0.177978515625,-0.5798339247703552,-0.6408690810203552,0.7019042372703552,80.0,836805.0,1.0
44923.0022105,261619.3125,268421.75,278208.5,263882.84375,245606.703125,166665.515625,254840.75,229317.203125,-0.2080078125,0.947509765625,-0.177490234375,-0.6713866591453552,-0.5798339247703552,0.6103515028953552,80.0,836806.0,1.0
44923.0047381,261097.265625,267093.0,277144.9375,262034.609375,244486.609375,166080.265625,254700.640625,228188.4375,-0.20849609375,0.94775390625,-0.1767578125,-0.6713866591453552,-0.4882812201976776,0.6103515028953552,80.0,836807.0,1.0
44923.0114596,261558.78125,268259.65625,277903.625,263026.65625,245469.90625,166584.25,255018.671875,228691.53125,-0.2099609375,0.948486328125,-0.177001953125,-0.7019042372703552,-0.4272460639476776,0.6408690810203552,80.0,836808.0,1.0
44923.0115054,262367.125,270297.4375,279434.5625,265478.125,247192.609375,167475.90625,255359.484375,230115.0625,-0.21240234375,0.94775390625,-0.17822265625,-0.7629393935203552,-0.4272460639476776,0.6408690810203552,80.0,836809.0,1.0
44923.0204766,262407.34375,270413.03125,279638.5625,266044.875,247300.34375,167540.1875,255257.46875,230530.625,-0.210693359375,0.949462890625,-0.178466796875,-0.8850097060203552,-0.3356933295726776,0.5798339247703552,80.0,836810.0,1.0
44923.0205239,261597.3125,268390.1875,278190.28125,263862.625,245581.40625,166651.578125,254829.75,229303.515625,-0.209716796875,0.94775390625,-0.177490234375,-0.9460448622703552,-0.4272460639476776,0.5493163466453552,80.0,836811.0,1.0
44923.0315857,261080.71875,267064.8125,277126.59375,262006.625,244457.109375,166060.421875,254688.21875,228171.359375,-0.20849609375,0.94873046875,-0.177001953125,-1.0070799589157104,-0.3051757514476776,0.4882812201976776,80.0,836812.0,1.0
44923.0316298,261557.890625,268250.53125,277902.65625,263012.625,245457.84375,166580.578125,255020.71875,228684.375,-0.207275390625,0.94677734375,-0.176513671875,-1.0986326932907104,-0.3967284858226776,0.5798339247703552,80.0,836813.0,1.0
44923.0340631,262365.15625,270291.53125,279434.90625,265465.96875,247181.96875,167476.078125,255360.28125,230109.078125,-0.208251953125,0.9443359375,-0.17529296875,-0.9765624403953552,-0.2441406100988388,0.5798339247703552,80.0,836814.0,1.0
44923.0341063,262404.40625,270404.53125,279633.65625,266019.46875,247283.078125,167533.75,255254.515625,230513.546875,-0.209716796875,0.93994140625,-0.17529296875,-1.0681151151657104,-0.1831054538488388,0.5493163466453552,80.0,836815.0,1.0
44923.0477759,261590.53125,268380.1875,278174.09375,263821.59375,245556.015625,166638.875,254819.5625,229272.578125,-0.208740234375,0.941162109375,-0.177734375,-0.9460448622703552,-0.2136230319738388,0.4577636420726776,80.0,836816.0,1.0
44923.0478249,261073.21875,267052.3125,277107.1875,261969.25,244431.890625,166049.59375,254678.5625,228139.890625,-0.20947265625,0.94287109375,-0.178466796875,-0.9460448622703552,-0.1831054538488388,0.4272460639476776,80.0,836817.0,1.0
44923.0523672,261541.796875,268225.5,277875.5625,262975.71875,245428.78125,166565.5625,255008.734375,228651.296875,-0.2099609375,0.940185546875,-0.17431640625,-0.7934569716453552,-0.0915527269244194,0.3967284858226776,80.0,836818.0,1.0
44923.0547519,262350.75,270267.65625,279410.40625,265432.625,247157.375,167462.234375,255353.140625,230079.390625,-0.2099609375,0.941650390625,-0.17041015625,-0.7629393935203552,-0.1220703050494194,0.4272460639476776,80.0,836819.0,1.0
44923.0572599,262397.25,270396.3125,279618.8125,265995.875,247266.28125,167528.203125,255247.8125,230489.328125,-0.2138671875,0.942138671875,-0.173095703125,-0.7629393935203552,-0.0915527269244194,0.4272460639476776,80.0,836820.0,1.0
44923.0597608,261588.109375,268373.75,278167.65625,263808.09375,245542.78125,166642.71875,254819.375,229255.0625,-0.21728515625,0.94384765625,-0.173095703125,-0.7324218153953552,-0.2136230319738388,0.3967284858226776,80.0,836821.0,1.0
44923.0623703,261060.34375,267027.4375,277087.78125,261939.296875,244406.59375,166042.625,254670.328125,228114.046875,-0.214111328125,0.94140625,-0.172119140625,-0.5493163466453552,-0.2136230319738388,0.3662109076976776,80.0,836822.0,1.0
44923.0735105,261529.546875,268200.28125,277852.9375,262942.625,245402.578125,166553.40625,254997.46875,228622.5,-0.214599609375,0.9404296875,-0.17041015625,-0.5493163466453552,-0.3051757514476776,0.3356933295726776,80.0,836823.0,1.0
44923.0765833,262344.21875,270250.21875,279392.875,265408.75,247136.015625,167455.609375,255342.234375,230052.921875,-0.212890625,0.939697265625,-0.176513671875,-0.4577636420726776,-0.2441406100988388,0.4272460639476776,80.0,836824.0,1.0
44923.0766272,262399.9375,270388.25,279613.90625,265988.53125,247258.046875,167532.5,255247.640625,230474.5625,-0.21484375,0.938720703125,-0.175537109375,-0.4272460639476776,-0.3356933295726776,0.4272460639476776,80.0,836825.0,1.0
44923.0810104,261586.59375,268368.5625,278162.75,263796.28125,245536.25,166645.140625,254818.65625,229240.03125,-0.216796875,0.938720703125,-0.17626953125,-0.2746581733226776,-0.4272460639476776,0.4882812201976776,80.0,836826.0,1.0
44923.0835899,261063.015625,267033.875,277087.875,261928.75,244405.703125,166052.28125,254674.453125,228099.203125,-0.217041015625,0.940673828125,-0.17578125,-0.1831054538488388,-0.4577636420726776,0.4577636420726776,80.0,836827.0,1.0
44923.0904039,261527.21875,268199.5,277846.78125,262926.1875,245394.71875,166555.90625,254996.40625,228603.015625,-0.2177734375,0.9423828125,-0.176025390625,-0.1220703050494194,-0.4882812201976776,0.4272460639476776,80.0,836828.0,1.0
44923.0904478,262345.5625,270251.46875,279393.0625,265401.3125,247134.671875,167455.34375,255345.984375,230043.625,-0.216796875,0.942626953125,-0.177001953125,-0.0610351525247097,-0.4577636420726776,0.3967284858226776,80.0,836829.0,1.0
44923.1096755,262402.59375,270390.0625,279612.375,265980.6875,247256.4375,167526.515625,255247.8125,230465.09375,-0.2177734375,0.9423828125,-0.177978515625,0.03051757626235485,-0.4272460639476776,0.3967284858226776,80.0,836830.0,1.0
44923.1097192,261589.984375,268356.5,278150.65625,263781.09375,245520.78125,166625.375,254808.375,229218.40625,-0.216552734375,0.94287109375,-0.174560546875,0.1220703050494194,-0.5493163466453552,0.4272460639476776,80.0,836831.0,1.0
44923.1097315,261065.609375,267013.15625,277071.53125,261909.625,244383.078125,166031.0,254665.953125,228071.484375,-0.2177734375,0.94384765625,-0.17236328125,0.1220703050494194,-0.6103515028953552,0.3967284858226776,80.0,836832.0,1.0
44923.1122607,261534.90625,268186.78125,277836.5625,262910.875,245378.171875,166540.171875,254994.609375,228578.15625,-0.2138671875,0.944091796875,-0.172607421875,0.1525878757238388,-0.7019042372703552,0.4272460639476776,80.0,836833.0,1.0
44923.1148775,262336.28125,270224.46875,279367.84375,265359.125,247101.859375,167427.453125,255329.625,229997.765625,-0.214111328125,0.943603515625,-0.173828125,0.1220703050494194,-0.8239745497703552,0.3967284858226776,80.0,836834.0,1.0
44923.1172525,262381.34375,270351.4375,279579.125,265919.4375,247212.0,167494.234375,255229.75,230406.0,-0.21533203125,0.945556640625,-0.17236328125,0.1220703050494194,-0.8850097060203552,0.4272460639476776,80.0,836835.0,1.0
44923.1197555,261571.65625,268323.40625,278120.28125,263717.875,245480.1875,166604.640625,254803.546875,229161.1875,-0.213623046875,0.947265625,-0.1748046875,0.1525878757238388,-0.8850097060203552,0.4882812201976776,80.0,836836.0,1.0
44923.1222712,261048.359375,266982.03125,277039.5,261839.515625,244340.4375,166002.484375,254659.15625,228014.890625,-0.21435546875,0.946533203125,-0.17431640625,0.0610351525247097,-0.9155272841453552,0.6408690810203552,80.0,836837.0,1.0
44923.1317073,261520.78125,268153.53125,277807.78125,262844.375,245335.625,166510.578125,254988.171875,228526.21875,-0.214111328125,0.94677734375,-0.173583984375,-0.0610351525247097,-0.9155272841453552,0.6408690810203552,80.0,836838.0,1.0
44923.131756,262331.625,270203.375,279348.53125,265308.34375,247067.515625,167405.28125,255328.640625,229956.8125,-0.212890625,0.946044921875,-0.176025390625,0.0,-1.0375975370407104,0.6408690810203552,80.0,836839.0,1.0
44923.1334372,262377.65625,270331.9375,279558.46875,265872.03125,247176.0625,167469.921875,255223.40625,230361.828125,-0.21240234375,0.94677734375,-0.176513671875,0.0610351525247097,-0.9460448622703552,0.5493163466453552,80.0,836840.0,1.0
44923.1472594,261562.890625,268302.40625,278098.4375,263667.28125,245442.1875,166577.71875,254792.375,229115.5,-0.21240234375,0.946044921875,-0.1767578125,0.03051757626235485,-1.0681151151657104,0.7324218153953552,80.0,836841.0,1.0
44923.1509164,261037.0,266956.5625,277012.25,261779.4375,244301.71875,165983.4375,254651.296875,227965.09375,-0.212890625,0.94677734375,-0.1748046875,0.1220703050494194,-1.0681151151657104,0.7019042372703552,80.0,836842.0,1.0
44923.1509605,261510.328125,268125.09375,277779.09375,262784.1875,245300.84375,166498.78125,254987.015625,228473.640625,-0.211669921875,0.9462890625,-0.1748046875,0.1220703050494194,-1.0681151151657104,0.7019042372703552,80.0,836843.0,1.0
44923.1509725,262331.53125,270182.0,279327.625,265267.46875,247044.71875,167398.75,255336.0625,229908.171875,-0.20947265625,0.947265625,-0.17529296875,0.0915527269244194,-1.0681151151657104,0.6408690810203552,80.0,836844.0,1.0
44923.1548268,262377.5625,270314.78125,279537.09375,265829.21875,247153.359375,167463.921875,255232.25,230316.953125,-0.212646484375,0.946533203125,-0.177734375,0.0610351525247097,-1.0375975370407104,0.5798339247703552,80.0,836845.0,1.0
44923.1585026,261561.5625,268277.1875,278075.03125,263619.0,245410.8125,166563.953125,254795.859375,229065.25,-0.210693359375,0.945556640625,-0.1796875,0.0,-1.0681151151657104,0.5493163466453552,80.0,836846.0,1.0
44923.1726088,261035.671875,266927.21875,276992.3125,261734.734375,244268.015625,165962.96875,254652.625,227912.4375,-0.208740234375,0.94482421875,-0.175537109375,0.0,-1.0375975370407104,0.5798339247703552,80.0,836847.0,1.0
44923.1726563,261517.921875,268114.1875,277771.3125,262750.65625,245276.875,166484.03125,254993.8125,228435.46875,-0.210205078125,0.94677734375,-0.177001953125,0.03051757626235485,-0.9460448622703552,0.5187987685203552,80.0,836848.0,1.0
44923.1797668,262333.3125,270177.4375,279321.1875,265239.59375,247022.90625,167383.640625,255338.65625,229879.65625,-0.211669921875,0.947021484375,-0.177490234375,0.0915527269244194,-0.8850097060203552,0.5493163466453552,80.0,836849.0,1.0
44923.182911,262378.125,270308.6875,279531.90625,265812.5,247137.96875,167453.828125,255236.734375,230298.53125,-0.209228515625,0.944091796875,-0.179443359375,-0.03051757626235485,-0.8850097060203552,0.4577636420726776,80.0,836850.0,1.0
44923.1829572,261571.84375,268286.65625,278077.09375,263618.0,245411.609375,166568.25,254811.0625,229064.265625,-0.207763671875,0.942626953125,-0.181396484375,-0.1220703050494194,-0.9155272841453552,0.5493163466453552,80.0,836851.0,1.0
44923.1847071,261029.5,266919.90625,276977.09375,261722.578125,244255.21875,165958.9375,254652.984375,227902.515625,-0.209228515625,0.9423828125,-0.177978515625,-0.1220703050494194,-0.8850097060203552,0.5187987685203552,80.0,836852.0,1.0
44923.1871579,261488.15625,268079.78125,277732.0625,262718.75,245246.578125,166460.875,254975.484375,228404.078125,-0.210205078125,0.9423828125,-0.177490234375,-0.0915527269244194,-0.8544921278953552,0.5798339247703552,80.0,836853.0,1.0
44923.1959444,262308.0,270148.75,279289.8125,265222.15625,247007.171875,167365.3125,255324.25,229859.984375,-0.208984375,0.942626953125,-0.180908203125,0.0,-0.8239745497703552,0.6408690810203552,80.0,836854.0,1.0
44923.1991729,262351.8125,270288.84375,279505.71875,265802.3125,247128.859375,167433.265625,255219.46875,230280.5625,-0.208984375,0.94091796875,-0.1787109375,0.03051757626235485,-0.6713866591453552,0.6103515028953552,80.0,836855.0,1.0
44923.1992177,261544.84375,268258.125,278052.59375,263608.8125,245401.0625,166544.546875,254789.96875,229045.3125,-0.20849609375,0.940673828125,-0.179931640625,0.1831054538488388,-0.5798339247703552,0.5493163466453552,80.0,836856.0,1.0
44923.2047417,261025.734375,266919.28125,276973.625,261735.0,244263.453125,165950.359375,254649.328125,227906.796875,-0.207763671875,0.940185546875,-0.178955078125,0.1525878757238388,-0.6408690810203552,0.6408690810203552,80.0,836857.0,1.0
44923.2190556,261502.453125,268097.375,277745.75,262751.75,245266.0625,166461.234375,254980.21875,228427.953125,-0.207763671875,0.939453125,-0.181640625,0.1525878757238388,-0.5798339247703552,0.6103515028953552,80.0,836858.0,1.0
44923.2191,262321.15625,270161.34375,279303.3125,265256.3125,247023.09375,167362.53125,255324.703125,229880.1875,-0.208740234375,0.941162109375,-0.17724609375,0.2136230319738388,-0.4272460639476776,0.5187987685203552,80.0,836859.0,1.0
44923.221556,262363.96875,270300.46875,279519.5625,265842.0,247147.546875,167430.484375,255215.1875,230303.71875,-0.208984375,0.941650390625,-0.178466796875,0.2441406100988388,-0.4272460639476776,0.5798339247703552,80.0,836860.0,1.0
44923.2215937,261551.453125,268277.09375,278064.21875,263645.46875,245418.5,166542.234375,254783.4375,229071.0625,-0.208740234375,0.94140625,-0.17822265625,0.1525878757238388,-0.4272460639476776,0.5187987685203552,80.0,836861.0,1.0
44923.2236138,261025.390625,266925.09375,276978.375,261765.21875,244276.59375,165943.46875,254639.9375,227930.140625,-0.210205078125,0.940673828125,-0.1787109375,0.2136230319738388,-0.3662109076976776,0.5798339247703552,80.0,836862.0,1.0
44923.2272138,261502.375,268106.40625,277753.59375,262784.90625,245286.359375,166461.40625,254978.078125,228459.0625,-0.21044921875,0.941650390625,-0.174560546875,0.3356933295726776,-0.3356933295726776,0.6408690810203552,80.0,836863.0,1.0
44923.2365813,262334.3125,270198.4375,279331.28125,265306.1875,247067.96875,167385.78125,255341.0625,229937.328125,-0.211181640625,0.94384765625,-0.177978515625,0.3967284858226776,-0.3051757514476776,0.6713866591453552,80.0,836864.0,1.0
44923.2366256,262392.5,270354.90625,279564.28125,265913.09375,247209.046875,167464.28125,255243.4375,230380.328125,-0.21044921875,0.94482421875,-0.1796875,0.3356933295726776,-0.2441406100988388,0.5798339247703552,80.0,836865.0,1.0
44923.2390824,261568.796875,268316.875,278100.0625,263713.84375,245471.34375,166562.4375,254803.015625,229143.203125,-0.2080078125,0.9482421875,-0.1787109375,0.2136230319738388,-0.2441406100988388,0.4882812201976776,80.0,836866.0,1.0
44923.2391261,261040.578125,266966.5625,277018.9375,261833.984375,244330.421875,165968.78125,254661.84375,228005.15625,-0.2080078125,0.948486328125,-0.18115234375,0.2441406100988388,-0.2746581733226776,0.6103515028953552,80.0,836867.0,1.0
44923.2473659,261514.34375,268139.84375,277790.09375,262847.5,245335.625,166478.21875,254991.75,228525.234375,-0.209228515625,0.947265625,-0.18212890625,0.2441406100988388,-0.2441406100988388,0.5798339247703552,80.0,836868.0,1.0
44923.2515445,262344.59375,270230.46875,279366.78125,265379.3125,247117.859375,167394.71875,255345.359375,230001.96875,-0.208251953125,0.947509765625,-0.18212890625,0.1220703050494194,-0.2441406100988388,0.6103515028953552,80.0,836869.0,1.0
44923.2515851,262404.5625,270395.59375,279610.3125,265999.71875,247269.5,167478.765625,255250.3125,230453.921875,-0.207275390625,0.9462890625,-0.18359375,0.0610351525247097,-0.2746581733226776,0.5493163466453552,80.0,836870.0,1.0
44923.2547417,261583.640625,268370.875,278152.1875,263802.09375,245535.796875,166584.34375,254810.875,229224.65625,-0.208984375,0.943359375,-0.180908203125,0.1525878757238388,-0.2441406100988388,0.4882812201976776,80.0,836871.0,1.0
44923.2685132,261047.90625,267012.53125,277061.25,261915.96875,244386.46875,165983.53125,254659.96875,228080.15625,-0.209716796875,0.945068359375,-0.179931640625,0.1831054538488388,-0.3356933295726776,0.5187987685203552,80.0,836872.0,1.0
44923.2716899,261524.1875,268193.5,277841.125,262939.6875,245400.625,166510.3125,254999.890625,228614.546875,-0.212158203125,0.94677734375,-0.178955078125,0.3051757514476776,-0.3356933295726776,0.4272460639476776,80.0,836873.0,1.0
44923.2717361,262355.21875,270283.125,279421.84375,265478.03125,247185.359375,167431.921875,255357.421875,230096.640625,-0.213623046875,0.943603515625,-0.17578125,0.2441406100988388,-0.2136230319738388,0.3967284858226776,80.0,836874.0,1.0
44923.2738837,262412.875,270447.71875,279662.34375,266107.71875,247335.921875,167513.90625,255257.203125,230552.265625,-0.212646484375,0.939208984375,-0.17578125,0.3356933295726776,-0.3356933295726776,0.3967284858226776,80.0,836875.0,1.0
44923.2759547,261593.921875,268419.15625,278202.96875,263912.5,245604.90625,166619.125,254816.515625,229324.703125,-0.212890625,0.938232421875,-0.178466796875,0.3356933295726776,-0.2441406100988388,0.2746581733226776,80.0,836876.0,1.0
44923.2860115,261070.984375,267079.75,277129.625,262045.421875,244475.875,166031.71875,254677.125,228200.59375,-0.211181640625,0.935302734375,-0.1796875,0.3662109076976776,-0.2746581733226776,0.1831054538488388,80.0,836877.0,1.0
44923.2892,261549.390625,268257.5,277911.0625,263081.9375,245493.25,166552.15625,255011.328125,228735.78125,-0.212158203125,0.935791015625,-0.181884765625,0.4272460639476776,-0.3662109076976776,0.03051757626235485,80.0,836878.0,1.0
44923.289247,262383.65625,270351.15625,279495.34375,265632.96875,247283.078125,167473.671875,255364.9375,230229.328125,-0.21240234375,0.937255859375,-0.185791015625,0.6408690810203552,-0.3967284858226776,0.0,80.0,836879.0,1.0
44923.2910201,262443.28125,270532.375,279748.09375,266277.25,247449.5625,167566.75,255272.9375,230711.3125,-0.209228515625,0.9384765625,-0.185791015625,0.7934569716453552,-0.4577636420726776,0.03051757626235485,80.0,836880.0,1.0
44923.2996527,261631.828125,268518.5,278305.0625,264108.03125,245741.171875,166685.734375,254845.9375,229513.0,-0.210693359375,0.94091796875,-0.1806640625,0.8850097060203552,-0.4882812201976776,-0.0610351525247097,80.0,836881.0,1.0
44923.306581,261097.984375,267166.125,277220.46875,262240.34375,244606.953125,166093.859375,254696.625,228390.3125,-0.20947265625,0.942138671875,-0.17919921875,1.0070799589157104,-0.5493163466453552,-0.0915527269244194,80.0,836882.0,1.0
44923.3066255,261571.03125,268343.25,277994.5625,263260.90625,245615.203125,166612.234375,255024.03125,228921.296875,-0.21240234375,0.9443359375,-0.177734375,0.9155272841453552,-0.6103515028953552,-0.0610351525247097,80.0,836883.0,1.0
44923.3110708,262400.46875,270432.59375,279569.46875,265780.03125,247390.28125,167532.859375,255376.921875,230395.09375,-0.212890625,0.9453125,-0.176513671875,0.8544921278953552,-0.5798339247703552,0.0610351525247097,80.0,836884.0,1.0
44923.3134615,262463.3125,270595.5,279812.46875,266395.15625,247536.28125,167616.984375,255278.84375,230842.484375,-0.214599609375,0.945556640625,-0.177978515625,1.0070799589157104,-0.5493163466453552,0.1525878757238388,80.0,836885.0,1.0
44923.3160008,261648.015625,268566.15625,278356.3125,264196.1875,245802.0625,166722.65625,254842.71875,229611.34375,-0.21875,0.947265625,-0.18017578125,0.8544921278953552,-0.6103515028953552,0.03051757626235485,80.0,836886.0,1.0
44923.3247817,261109.0625,267199.75,277260.53125,262298.1875,244644.140625,166116.828125,254690.890625,228459.6875,-0.220703125,0.94677734375,-0.181884765625,0.7629393935203552,-0.7629393935203552,-0.1525878757238388,80.0,836887.0,1.0
44923.3291659,261580.15625,268372.75,278029.4375,263304.0,245645.421875,166630.828125,255020.09375,228980.484375,-0.219970703125,0.949462890625,-0.17822265625,0.6713866591453552,-0.8239745497703552,-0.3051757514476776,80.0,836888.0,1.0
44923.3292119,262402.34375,270456.21875,279599.5,265817.96875,247415.3125,167547.34375,255368.6875,230445.953125,-0.220703125,0.94970703125,-0.1806640625,0.6103515028953552,-1.0070799589157104,-0.2746581733226776,80.0,836889.0,1.0
44923.330987,262460.71875,270623.21875,279838.84375,266439.34375,247564.0,167631.75,255271.0625,230898.359375,-0.218017578125,0.9521484375,-0.179443359375,0.4272460639476776,-1.0681151151657104,-0.2441406100988388,80.0,836890.0,1.0
44923.3446602,261648.734375,268603.875,278388.65625,264256.90625,245844.609375,166749.03125,254842.625,229682.78125,-0.215576171875,0.95361328125,-0.17822265625,0.3051757514476776,-1.2512205839157104,-0.1831054538488388,80.0,836891.0,1.0
44923.3515808,261116.125,267238.90625,277297.8125,262374.71875,244701.28125,166154.921875,254700.28125,228550.0,-0.21435546875,0.95361328125,-0.177490234375,0.0610351525247097,-1.3122557401657104,-0.0610351525247097,80.0,836892.0,1.0
44923.3516253,261598.84375,268420.59375,278076.09375,263400.375,245714.703125,166677.140625,255036.8125,229078.390625,-0.214111328125,0.95361328125,-0.180908203125,-0.1220703050494194,-1.3122557401657104,0.1220703050494194,80.0,836893.0,1.0
44923.3536387,262423.875,270513.15625,279648.15625,265922.84375,247486.9375,167594.8125,255386.75,230546.546875,-0.213623046875,0.953369140625,-0.180419921875,-0.4272460639476776,-1.4038084745407104,0.1831054538488388,80.0,836894.0,1.0
44923.3560014,262478.96875,270677.59375,279887.75,266534.5625,247632.125,167678.859375,255289.203125,230996.4375,-0.215087890625,0.954345703125,-0.180908203125,-0.6103515028953552,-1.4648436307907104,0.3662109076976776,80.0,836895.0,1.0
44923.3585001,261662.9375,268640.90625,278425.40625,264329.25,245895.046875,166784.171875,254853.0,229760.03125,-0.2158203125,0.952880859375,-0.177978515625,-0.7019042372703552,-1.5258787870407104,0.4577636420726776,80.0,836896.0,1.0
44923.3623317,261127.84375,267267.34375,277324.375,262422.28125,244732.21875,166179.5,254705.46875,228602.828125,-0.215576171875,0.9501953125,-0.1787109375,-0.8239745497703552,-1.6174315214157104,0.6713866591453552,80.0,836897.0,1.0
44923.3741237,261596.875,268430.4375,278083.78125,263408.71875,245719.796875,166690.015625,255036.640625,229107.984375,-0.2138671875,0.950927734375,-0.178466796875,-0.9460448622703552,-1.6479490995407104,0.7934569716453552,80.0,836898.0,1.0
44923.3741682,262418.25,270498.6875,279639.65625,265886.96875,247469.5,167597.859375,255383.71875,230545.296875,-0.212158203125,0.95068359375,-0.1767578125,-1.0681151151657104,-1.5563963651657104,0.8544921278953552,80.0,836899.0,1.0
44923.3759912,262464.84375,270639.59375,279854.6875,266462.9375,247583.578125,167664.28125,255276.25,230952.453125,-0.211669921875,0.946533203125,-0.177001953125,-1.1291502714157104,-1.6174315214157104,0.8544921278953552,80.0,836900.0,1.0
44923.3785007,261642.5625,268598.6875,278383.40625,264238.03125,245830.578125,166764.40625,254840.203125,229699.59375,-0.211669921875,0.947021484375,-0.177978515625,-1.2512205839157104,-1.5869139432907104,0.8850097060203552,80.0,836901.0,1.0
44923.3897381,261095.921875,267205.09375,277267.875,262305.96875,244649.515625,166145.359375,254686.34375,228520.40625,-0.2099609375,0.94580078125,-0.176025390625,-1.4038084745407104,-1.3732908964157104,0.9765624403953552,80.0,836902.0,1.0
44923.3929401,261566.734375,268357.03125,278023.53125,263285.40625,245636.828125,166648.890625,255019.109375,229015.0,-0.20849609375,0.94287109375,-0.176513671875,-1.4038084745407104,-1.4648436307907104,0.9765624403953552,80.0,836903.0,1.0
44923.3929879,262398.5,270439.75,279591.375,265786.84375,247402.171875,167562.984375,255374.859375,230462.953125,-0.2080078125,0.9404296875,-0.178466796875,-1.3732908964157104,-1.3122557401657104,0.9765624403953552,80.0,836904.0,1.0
44923.3946306,262457.875,270603.65625,279824.71875,266391.3125,247538.34375,167641.40625,255275.53125,230889.328125,-0.207763671875,0.9384765625,-0.176025390625,-1.4648436307907104,-1.2512205839157104,0.9765624403953552,80.0,836905.0,1.0
44923.3985043,261646.140625,268577.15625,278368.5625,264198.34375,245805.625,166751.53125,254843.96875,229654.4375,-0.20703125,0.93896484375,-0.176513671875,-1.3427733182907104,-1.2512205839157104,1.0375975370407104,80.0,836906.0,1.0
44923.4072174,261108.4375,267203.125,277266.4375,262287.28125,244640.84375,166143.390625,254694.65625,228494.65625,-0.206298828125,0.93994140625,-0.17529296875,-1.2817381620407104,-1.0986326932907104,0.9460448622703552,80.0,836907.0,1.0
44923.421683,261558.78125,268342.09375,278009.03125,263263.5,245615.109375,166631.640625,255007.578125,228981.65625,-0.206298828125,0.939697265625,-0.176513671875,-1.1901854276657104,-1.0375975370407104,0.8239745497703552,80.0,836908.0,1.0
44923.4217272,262380.71875,270417.75,279569.65625,265761.28125,247374.640625,167537.78125,255358.59375,230427.546875,-0.20751953125,0.9404296875,-0.173828125,-1.0375975370407104,-0.9155272841453552,0.7324218153953552,80.0,836909.0,1.0
44923.4246881,262441.3125,270588.8125,279808.71875,266365.5625,247516.4375,167624.765625,255267.03125,230863.578125,-0.20654296875,0.943359375,-0.17333984375,-1.0681151151657104,-0.7934569716453552,0.5798339247703552,80.0,836910.0,1.0
44923.4247316,261628.25,268561.75,278348.4375,264163.03125,245781.5,166733.203125,254836.984375,229623.765625,-0.205810546875,0.943359375,-0.171875,-0.9460448622703552,-0.8544921278953552,0.4272460639476776,80.0,836911.0,1.0
44923.4247433,261089.125,267178.09375,277236.65625,262240.0625,244608.03125,166121.21875,254683.484375,228453.25,-0.2060546875,0.944091796875,-0.172607421875,-1.0070799589157104,-0.6713866591453552,0.3662109076976776,80.0,836912.0,1.0
44923.427205,261559.234375,268333.15625,277991.4375,263226.5,245595.078125,166625.46875,255012.140625,228952.234375,-0.20703125,0.94189453125,-0.173583984375,-0.9460448622703552,-0.6103515028953552,0.2136230319738388,80.0,836913.0,1.0
44923.4297321,262387.3125,270417.21875,279559.0,265734.28125,247365.421875,167541.0,255368.0625,230402.953125,-0.206787109375,0.942138671875,-0.176025390625,-0.8544921278953552,-0.4882812201976776,0.1831054538488388,80.0,836914.0,1.0
44923.4386161,262438.0,270573.4375,279791.0,266337.21875,247499.453125,167620.125,255267.21875,230830.234375,-0.205810546875,0.94189453125,-0.1748046875,-0.7629393935203552,-0.3662109076976776,0.0915527269244194,80.0,836915.0,1.0
44923.4428471,261627.265625,268541.8125,278331.8125,264134.15625,245760.484375,166729.71875,254835.46875,229591.234375,-0.20751953125,0.94189453125,-0.172119140625,-0.6713866591453552,-0.3051757514476776,0.03051757626235485,80.0,836916.0,1.0
44923.4428917,261086.625,267156.03125,277216.8125,262207.0625,244582.015625,166117.015625,254680.890625,228415.34375,-0.206787109375,0.939208984375,-0.176025390625,-0.4882812201976776,-0.1831054538488388,0.1220703050494194,80.0,836917.0,1.0
44923.4446352,261546.796875,268302.40625,277964.96875,263183.65625,245559.3125,166613.21875,255001.046875,228904.5,-0.2080078125,0.942626953125,-0.173095703125,-0.3967284858226776,-0.1220703050494194,0.1220703050494194,80.0,836918.0,1.0
44923.4584894,262379.0,270387.28125,279535.21875,265685.71875,247327.703125,167525.265625,255357.515625,230354.3125,-0.20947265625,0.94287109375,-0.17578125,-0.3967284858226776,-0.0610351525247097,0.0915527269244194,80.0,836919.0,1.0
44923.4616499,262436.40625,270549.8125,279768.84375,266290.65625,247464.484375,167600.359375,255256.390625,230781.6875,-0.21044921875,0.942626953125,-0.1728515625,-0.3356933295726776,0.1220703050494194,0.2136230319738388,80.0,836920.0,1.0
44923.4616921,261619.84375,268512.6875,278306.59375,264090.875,245726.234375,166701.203125,254821.34375,229541.96875,-0.209716796875,0.943359375,-0.16943359375,-0.2136230319738388,0.0,0.2441406100988388,80.0,836921.0,1.0
44923.4634654,261077.421875,267126.0625,277193.65625,262168.90625,244550.890625,166083.390625,254669.890625,228369.484375,-0.2119140625,0.943115234375,-0.1728515625,-0.2136230319738388,0.0610351525247097,0.2136230319738388,80.0,836922.0,1.0
44923.4672687,261548.140625,268287.46875,277951.03125,263154.53125,245542.0625,166587.375,255003.28125,228868.375,-0.214111328125,0.944580078125,-0.17578125,-0.1220703050494194,0.1525878757238388,0.2136230319738388,80.0,836923.0,1.0
44923.4760311,262383.46875,270380.46875,279524.65625,265669.375,247318.75,167506.578125,255362.4375,230324.546875,-0.21435546875,0.943359375,-0.173828125,-0.03051757626235485,0.0610351525247097,0.3662109076976776,80.0,836924.0,1.0
44923.479205,262437.46875,270545.4375,279758.90625,266272.21875,247456.984375,167585.25,255260.0625,230754.140625,-0.214111328125,0.94140625,-0.1748046875,0.0610351525247097,0.0915527269244194,0.3967284858226776,80.0,836925.0,1.0
44923.4792512,261623.609375,268518.59375,278303.71875,264078.0,245723.828125,166696.90625,254830.109375,229522.828125,-0.217529296875,0.943115234375,-0.172607421875,0.3051757514476776,0.03051757626235485,0.3662109076976776,80.0,836926.0,1.0
44923.4853753,261082.96875,267130.09375,277193.65625,262159.25,244548.125,166081.875,254679.0,228354.015625,-0.21875,0.945068359375,-0.175048828125,0.3051757514476776,-0.0610351525247097,0.3967284858226776,80.0,836927.0,1.0
44923.4854188,261547.609375,268288.71875,277949.15625,263146.125,245535.4375,166585.234375,255008.375,228853.890625,-0.21875,0.944091796875,-0.17529296875,0.2746581733226776,-0.2136230319738388,0.3967284858226776,80.0,836928.0,1.0
44923.4947424,262377.125,270379.15625,279521.375,265660.96875,247314.640625,167504.15625,255364.765625,230315.875,-0.219482421875,0.944091796875,-0.1748046875,0.3662109076976776,-0.3967284858226776,0.4272460639476776,80.0,836929.0,1.0
44923.4978469,262436.21875,270549.90625,279761.78125,266274.8125,247463.5,167590.078125,255267.9375,230758.265625,-0.2197265625,0.942626953125,-0.174560546875,0.3967284858226776,-0.4272460639476776,0.4882812201976776,80.0,836930.0,1.0
44923.4978925,261628.703125,268526.375,278310.15625,264086.6875,245733.390625,166703.515625,254836.8125,229529.625,-0.2197265625,0.943359375,-0.173583984375,0.4577636420726776,-0.5493163466453552,0.5187987685203552,80.0,836931.0,1.0
44923.5061194,261083.9375,267135.8125,277196.0625,262162.375,244556.796875,166090.453125,254687.59375,228360.8125,-0.22021484375,0.94287109375,-0.17431640625,0.5187987685203552,-0.7019042372703552,0.5798339247703552,80.0,836932.0,1.0
44923.5090959,261536.875,268279.78125,277939.84375,263138.0625,245535.796875,166585.6875,255014.015625,228854.515625,-0.218994140625,0.9423828125,-0.177978515625,0.5187987685203552,-0.7934569716453552,0.6103515028953552,80.0,836933.0,1.0
44923.5091391,262356.5625,270352.0625,279502.84375,265645.65625,247301.40625,167491.546875,255361.0,230305.40625,-0.21826171875,0.941650390625,-0.178466796875,0.6713866591453552,-0.9155272841453552,0.4577636420726776,80.0,836934.0,1.0
44923.5109766,262423.71875,270539.1875,279754.53125,266269.375,247457.96875,167587.75,255270.078125,230758.34375,-0.217529296875,0.944580078125,-0.1767578125,0.7629393935203552,-1.0375975370407104,0.4882812201976776,80.0,836935.0,1.0
44923.524774,261628.609375,268532.8125,278315.875,264095.0,245742.0625,166710.140625,254849.0625,229538.84375,-0.216552734375,0.94677734375,-0.176025390625,0.7934569716453552,-1.1596678495407104,0.5493163466453552,80.0,836936.0,1.0
44923.5279394,261078.578125,267130.90625,277195.71875,262165.6875,244556.171875,166085.1875,254688.03125,228360.625,-0.214599609375,0.9482421875,-0.175537109375,0.6408690810203552,-1.2512205839157104,0.6713866591453552,80.0,836937.0,1.0
44923.5279807,261533.03125,268266.625,277934.65625,263127.78125,245525.703125,166577.8125,255005.25,228847.8125,-0.21435546875,0.94873046875,-0.177978515625,0.6103515028953552,-1.3122557401657104,0.6103515028953552,80.0,836938.0,1.0
44923.5297621,262378.75,270376.71875,279521.4375,265649.6875,247314.640625,167504.96875,255372.625,230316.765625,-0.214599609375,0.951416015625,-0.176513671875,0.6103515028953552,-1.4038084745407104,0.5187987685203552,80.0,836939.0,1.0
44923.5334175,262445.15625,270560.375,279774.03125,266279.28125,247473.875,167597.765625,255283.21875,230766.484375,-0.216064453125,0.951171875,-0.174072265625,0.5493163466453552,-1.4648436307907104,0.4577636420726776,80.0,836940.0,1.0
44923.547825,261628.796875,268527.15625,278314.90625,264083.90625,245736.15625,166702.09375,254845.75,229528.203125,-0.21484375,0.950927734375,-0.172607421875,0.4272460639476776,-1.6479490995407104,0.4272460639476776,80.0,836941.0,1.0
44923.5478648,261076.25,267122.3125,277193.46875,262149.3125,244548.75,166083.84375,254683.296875,228345.796875,-0.212890625,0.94873046875,-0.176513671875,0.1525878757238388,-1.6174315214157104,0.5187987685203552,80.0,836942.0,1.0
44923.5722306,261536.515625,268267.4375,277939.5625,263121.1875,245527.21875,166582.28125,255010.4375,228833.5,-0.208251953125,0.9453125,-0.1806640625,-0.1220703050494194,-1.5869139432907104,0.5798339247703552,80.0,836943.0,1.0
44923.574756,262371.40625,270368.40625,279517.96875,265646.21875,247311.15625,167500.578125,255368.0625,230298.703125,-0.206787109375,0.944580078125,-0.177734375,-0.03051757626235485,-1.5258787870407104,0.5493163466453552,80.0,836944.0,1.0
44923.5772198,262430.15625,270546.6875,279763.375,266270.25,247461.890625,167587.9375,255267.484375,230745.65625,-0.205078125,0.94580078125,-0.179931640625,-0.0915527269244194,-1.4343260526657104,0.7934569716453552,80.0,836945.0,1.0
44923.5797195,261617.703125,268520.71875,278309.8125,264081.9375,245729.8125,166699.3125,254834.84375,229519.703125,-0.20263671875,0.94677734375,-0.180419921875,0.03051757626235485,-1.2512205839157104,0.9155272841453552,80.0,836946.0,1.0
44923.5823698,261073.3125,267116.84375,277188.28125,262152.28125,244545.890625,166075.53125,254679.984375,228348.46875,-0.203857421875,0.948974609375,-0.181640625,-0.03051757626235485,-1.1291502714157104,0.9765624403953552,80.0,836947.0,1.0
44923.5847162,261536.4375,268258.125,277929.5625,263114.75,245519.703125,166568.421875,255005.34375,228836.28125,-0.205810546875,0.951171875,-0.18017578125,-0.03051757626235485,-0.9460448622703552,0.9460448622703552,80.0,836948.0,1.0
44923.5872765,262376.84375,270362.78125,279514.03125,265639.5,247308.109375,167492.171875,255366.546875,230300.140625,-0.205078125,0.94970703125,-0.177978515625,-0.1525878757238388,-0.8544921278953552,0.9460448622703552,80.0,836949.0,1.0
44923.5897006,262446.59375,270550.96875,279769.5625,266275.28125,247469.859375,167586.59375,255278.21875,230756.65625,-0.201904296875,0.9462890625,-0.1748046875,-0.3051757514476776,-0.6103515028953552,0.8544921278953552,80.0,836950.0,1.0
44923.5921623,261638.0,268527.96875,278313.90625,264081.21875,245733.65625,166696.015625,254846.90625,229522.03125,-0.200927734375,0.939208984375,-0.175048828125,-0.3356933295726776,-0.4882812201976776,0.8850097060203552,80.0,836951.0,1.0
44923.5985262,261085.734375,267118.375,277184.96875,262135.546875,244538.203125,166064.796875,254684.28125,228330.953125,-0.201904296875,0.9345703125,-0.1787109375,-0.2441406100988388,-0.3967284858226776,0.8544921278953552,80.0,836952.0,1.0
44923.6010192,261535.359375,268246.15625,277919.1875,263087.90625,245502.546875,166554.125,255003.734375,228805.515625,-0.20556640625,0.933837890625,-0.17822265625,-0.2136230319738388,-0.1220703050494194,0.7934569716453552,80.0,836953.0,1.0
44923.6033969,262378.90625,270352.3125,279504.5625,265622.25,247295.15625,167486.453125,255370.125,230277.78125,-0.208740234375,0.936279296875,-0.178955078125,-0.0610351525247097,-0.0610351525247097,0.6713866591453552,80.0,836954.0,1.0
44923.6064422,262436.125,270534.0,279750.6875,266254.15625,247450.453125,167572.015625,255269.71875,230729.015625,-0.211181640625,0.938720703125,-0.181640625,0.1220703050494194,0.03051757626235485,0.4882812201976776,80.0,836955.0,1.0
44923.6064768,261615.015625,268498.46875,278281.8125,264041.96875,245703.0,166666.953125,254824.5625,229485.375,-0.214111328125,0.942138671875,-0.178955078125,0.3051757514476776,0.1220703050494194,0.2441406100988388,80.0,836956.0,1.0
44923.6083231,261067.578125,267091.8125,277155.46875,262102.921875,244508.15625,166044.6875,254667.296875,228302.96875,-0.21435546875,0.9453125,-0.177734375,0.2746581733226776,0.03051757626235485,0.0,80.0,836957.0,1.0
44923.6114407,261529.546875,268228.28125,277896.46875,263061.625,245477.6875,166541.78125,254994.4375,228782.71875,-0.215087890625,0.94580078125,-0.1767578125,0.2441406100988388,-0.0610351525247097,-0.1525878757238388,80.0,836958.0,1.0
44923.6115196,262370.40625,270334.96875,279480.0625,265589.59375,247267.078125,167466.96875,255357.515625,230245.59375,-0.215576171875,0.946533203125,-0.174072265625,0.1831054538488388,0.03051757626235485,-0.2136230319738388,80.0,836959.0,1.0
44923.6133131,262450.1875,270541.875,279747.21875,266238.25,247445.09375,167576.3125,255276.875,230709.171875,-0.214599609375,0.94677734375,-0.175537109375,0.1831054538488388,-0.0610351525247097,-0.3662109076976776,80.0,836960.0,1.0
44923.6227669,261636.03125,268511.59375,278291.46875,264043.3125,245709.34375,166683.140625,254841.546875,229475.171875,-0.213134765625,0.945556640625,-0.17626953125,0.0610351525247097,-0.0915527269244194,-0.2136230319738388,80.0,836961.0,1.0
44923.6228193,261082.25,267099.15625,277166.21875,262101.3125,244514.859375,166055.859375,254682.21875,228294.296875,-0.212646484375,0.9443359375,-0.180419921875,0.0610351525247097,-0.03051757626235485,-0.3356933295726776,80.0,836962.0,1.0
44923.6247484,261533.9375,268227.125,277898.90625,263050.28125,245480.015625,166546.609375,255004.984375,228772.703125,-0.212158203125,0.9423828125,-0.178955078125,0.2746581733226776,0.03051757626235485,-0.2441406100988388,80.0,836963.0,1.0
44923.6445736,262369.09375,270330.78125,279476.65625,265571.0,247264.671875,167468.484375,255365.46875,230234.515625,-0.2109375,0.944580078125,-0.18017578125,0.3051757514476776,-0.1220703050494194,-0.1525878757238388,80.0,836964.0,1.0
44923.6446187,262443.03125,270532.5625,279738.875,266219.3125,247434.359375,167570.046875,255277.59375,230703.453125,-0.210693359375,0.943359375,-0.180419921875,0.3662109076976776,-0.03051757626235485,-0.03051757626235485,80.0,836965.0,1.0
44923.6446307,261633.4375,268502.9375,278283.96875,264029.71875,245697.8125,166680.0,254843.25,229473.125,-0.210693359375,0.944091796875,-0.17626953125,0.2441406100988388,-0.0610351525247097,0.0610351525247097,80.0,836966.0,1.0
44923.6472354,261082.609375,267094.6875,277155.5625,262080.65625,244501.09375,166052.375,254684.90625,228286.609375,-0.210205078125,0.9453125,-0.17822265625,0.1831054538488388,-0.0610351525247097,0.2136230319738388,80.0,836967.0,1.0
44923.6498159,261529.734375,268216.46875,277882.09375,263023.09375,245459.359375,166536.515625,255003.90625,228756.171875,-0.213623046875,0.942626953125,-0.180908203125,0.2136230319738388,-0.03051757626235485,0.3356933295726776,80.0,836968.0,1.0
44923.6522565,262363.90625,270319.78125,279465.65625,265555.09375,247251.703125,167461.609375,255367.703125,230221.28125,-0.213623046875,0.943115234375,-0.1787109375,0.0915527269244194,0.0,0.3967284858226776,80.0,836969.0,1.0
44923.6547813,262432.375,270517.1875,279724.59375,266192.03125,247420.765625,167556.375,255275.4375,230680.828125,-0.214111328125,0.942138671875,-0.178955078125,0.2441406100988388,-0.03051757626235485,0.5187987685203552,80.0,836970.0,1.0
44923.663468,261619.671875,268485.84375,278265.03125,263998.0625,245682.34375,166663.90625,254837.703125,229446.296875,-0.21240234375,0.941650390625,-0.17626953125,0.2746581733226776,-0.0915527269244194,0.6408690810203552,80.0,836971.0,1.0
44923.6666801,261065.171875,267068.125,277130.71875,262045.609375,244478.828125,166031.53125,254673.375,228256.5625,-0.21728515625,0.939208984375,-0.176025390625,0.3356933295726776,-0.1831054538488388,0.6408690810203552,80.0,836972.0,1.0
44923.6667271,261526.15625,268198.6875,277868.6875,262999.75,245446.75,166523.09375,255001.59375,228738.28125,-0.218017578125,0.941650390625,-0.173583984375,0.5187987685203552,-0.3356933295726776,0.6713866591453552,80.0,836973.0,1.0
44923.6685086,262369.09375,270316.03125,279458.78125,265541.78125,247245.0,167451.046875,255367.171875,230212.25,-0.219970703125,0.943359375,-0.17529296875,0.4882812201976776,-0.3662109076976776,0.8850097060203552,80.0,836974.0,1.0
44923.6822598,262438.28125,270523.25,279724.6875,266198.375,247420.40625,167552.796875,255279.015625,230684.140625,-0.22021484375,0.943115234375,-0.177490234375,0.4882812201976776,-0.5798339247703552,0.8850097060203552,80.0,836975.0,1.0
44923.6854088,261622.078125,268492.28125,278267.4375,263998.6875,245683.59375,166664.71875,254845.125,229455.6875,-0.21923828125,0.944580078125,-0.176513671875,0.5798339247703552,-0.6408690810203552,1.0070799589157104,80.0,836976.0,1.0
44923.6854522,261065.171875,267063.84375,277128.65625,262039.890625,244472.9375,166026.703125,254678.5625,228256.5625,-0.220703125,0.945068359375,-0.17724609375,0.5798339247703552,-0.7934569716453552,0.9460448622703552,80.0,836977.0,1.0
44923.6873677,261522.21875,268187.875,277857.15625,262986.25,245433.15625,166512.546875,254996.40625,228724.78125,-0.2197265625,0.947021484375,-0.18017578125,0.5493163466453552,-1.1291502714157104,1.0070799589157104,80.0,836978.0,1.0
44923.6897527,262356.125,270292.9375,279437.0625,265515.59375,247222.90625,167432.453125,255352.421875,230187.65625,-0.215576171875,0.9462890625,-0.18017578125,0.4577636420726776,-1.1291502714157104,1.0070799589157104,80.0,836979.0,1.0
44923.7078558,262438.0,270508.0625,279713.15625,266183.1875,247410.046875,167542.515625,255269.359375,230662.6875,-0.21484375,0.9453125,-0.181884765625,0.4272460639476776,-1.2817381620407104,0.9765624403953552,80.0,836980.0,1.0
44923.7078998,261627.53125,268477.8125,278255.625,263986.0,245670.625,166649.96875,254830.640625,229426.90625,-0.21533203125,0.94482421875,-0.178955078125,0.4272460639476776,-1.2512205839157104,0.9155272841453552,80.0,836981.0,1.0
44923.7097228,261070.984375,267053.125,277116.59375,262023.34375,244460.859375,166015.890625,254667.5625,228229.03125,-0.21240234375,0.943359375,-0.177001953125,0.4272460639476776,-1.3732908964157104,0.9155272841453552,80.0,836982.0,1.0
44923.712313,261528.921875,268181.34375,277852.3125,262974.09375,245427.625,166508.96875,254997.65625,228704.9375,-0.20849609375,0.94384765625,-0.181396484375,0.3662109076976776,-1.2207030057907104,0.7629393935203552,80.0,836983.0,1.0
44923.7147126,262369.71875,270297.15625,279442.40625,265508.15625,247225.765625,167438.796875,255362.25,230176.125,-0.20556640625,0.946044921875,-0.18310546875,0.4272460639476776,-1.1596678495407104,0.5798339247703552,80.0,836984.0,1.0
44923.7172784,262441.6875,270505.84375,279711.625,266169.0625,247404.671875,167539.203125,255269.09375,230646.046875,-0.206298828125,0.946533203125,-0.179443359375,0.3356933295726776,-1.0986326932907104,0.6103515028953552,80.0,836985.0,1.0
44923.7204107,261636.484375,268487.65625,278265.03125,263988.25,245678.9375,166659.625,254841.546875,229424.484375,-0.2041015625,0.94677734375,-0.17919921875,0.2136230319738388,-0.9765624403953552,0.4882812201976776,80.0,836986.0,1.0
44923.7204555,261088.5,267062.84375,277130.625,262026.921875,244469.359375,166024.828125,254681.25,228227.953125,-0.2041015625,0.9462890625,-0.18017578125,0.2136230319738388,-0.7934569716453552,0.5187987685203552,80.0,836987.0,1.0
44923.7286274,261540.546875,268179.0,277857.9375,262964.625,245422.703125,166505.484375,255001.5,228695.640625,-0.20263671875,0.94677734375,-0.180419921875,0.1525878757238388,-0.7324218153953552,0.4272460639476776,80.0,836988.0,1.0
44923.731644,262375.34375,270291.6875,279442.875,265499.125,247220.671875,167429.140625,255362.609375,230165.21875,-0.203857421875,0.947998046875,-0.1806640625,0.1831054538488388,-0.6408690810203552,0.3662109076976776,80.0,836989.0,1.0
44923.7316939,262453.40625,270509.21875,279717.78125,266170.03125,247409.234375,167536.25,255275.53125,230639.4375,-0.203369140625,0.945556640625,-0.18017578125,0.0610351525247097,-0.4882812201976776,0.2441406100988388,80.0,836990.0,1.0
44923.7446506,261635.3125,268481.84375,278259.84375,263975.8125,245668.21875,166643.4375,254838.59375,229408.03125,-0.203369140625,0.944580078125,-0.180908203125,-0.03051757626235485,-0.3356933295726776,0.1525878757238388,80.0,836991.0,1.0
44923.7478434,261075.890625,267046.21875,277112.75,261997.234375,244444.671875,166000.328125,254671.671875,228200.421875,-0.20458984375,0.94482421875,-0.182861328125,-0.0610351525247097,-0.1831054538488388,0.1525878757238388,80.0,836992.0,1.0
44923.7478919,261529.640625,268162.28125,277839.4375,262932.0,245400.34375,166483.9375,254997.65625,228660.5,-0.2080078125,0.945556640625,-0.18212890625,-0.1220703050494194,-0.2136230319738388,0.0915527269244194,80.0,836993.0,1.0
44923.7498755,262375.0625,270285.4375,279433.375,265474.90625,247205.65625,167414.9375,255365.03125,230134.828125,-0.207763671875,0.945068359375,-0.18017578125,-0.0915527269244194,-0.1220703050494194,0.03051757626235485,80.0,836994.0,1.0
44923.758414,262448.21875,270497.53125,279706.625,266147.5,247392.78125,167520.4375,255274.8125,230612.53125,-0.209228515625,0.943359375,-0.181396484375,-0.1220703050494194,-0.0610351525247097,0.03051757626235485,80.0,836995.0,1.0
44923.7641055,261634.515625,268467.8125,278249.28125,263948.46875,245652.203125,166627.4375,254837.078125,229380.9375,-0.211669921875,0.94189453125,-0.184326171875,-0.1525878757238388,0.0,0.03051757626235485,80.0,836996.0,1.0
44923.7641503,261060.25,267018.34375,277087.875,261952.09375,244417.5,165975.03125,254661.75,228161.171875,-0.213134765625,0.942626953125,-0.182373046875,-0.2136230319738388,-0.0915527269244194,0.0,80.0,836997.0,1.0
44923.7659699,261520.078125,268141.90625,277817.96875,262887.09375,245375.765625,166464.71875,254993.625,228627.953125,-0.21240234375,0.943603515625,-0.18212890625,-0.1831054538488388,-0.2136230319738388,0.0915527269244194,80.0,836998.0,1.0
44923.7685663,262358.8125,270259.5,279406.9375,265424.46875,247176.6875,167397.859375,255360.203125,230098.703125,-0.2138671875,0.943115234375,-0.18212890625,-0.2746581733226776,-0.2441406100988388,0.1220703050494194,80.0,836999.0,1.0
44923.7747688,262432.1875,270480.8125,279682.90625,266104.15625,247370.796875,167506.84375,255272.21875,230579.796875,-0.21435546875,0.94287109375,-0.181396484375,-0.1831054538488388,-0.3051757514476776,0.0915527269244194,80.0,837000.0,1.0
44923.7810182,261624.3125,268455.8125,278229.53125,263908.59375,245631.015625,166623.40625,254840.125,229348.484375,-0.214599609375,0.94140625,-0.179443359375,-0.2441406100988388,-0.3051757514476776,0.1220703050494194,80.0,837001.0,1.0
44923.7854072,261068.296875,267019.84375,277081.09375,261923.921875,244404.53125,165986.75,254673.828125,228134.4375,-0.216064453125,0.94091796875,-0.1796875,-0.2136230319738388,-0.3356933295726776,0.0915527269244194,80.0,837002.0,1.0
44923.785452,261513.28125,268129.84375,277798.5,262848.75,245352.078125,166471.6875,254996.40625,228589.0625,-0.214599609375,0.940673828125,-0.181640625,-0.2136230319738388,-0.3662109076976776,-0.03051757626235485,80.0,837003.0,1.0
44923.8010776,262342.875,270228.75,279376.25,265375.46875,247147.0,167389.0,255354.65625,230052.484375,-0.21435546875,0.939208984375,-0.1806640625,-0.0915527269244194,-0.4272460639476776,0.0610351525247097,80.0,837004.0,1.0
44923.804106,262431.125,270467.65625,279668.15625,266071.96875,247355.765625,167502.90625,255273.46875,230545.015625,-0.214599609375,0.939208984375,-0.18115234375,-0.03051757626235485,-0.4882812201976776,0.0915527269244194,80.0,837005.0,1.0
44923.8041499,261617.703125,268433.65625,278210.65625,263875.6875,245611.265625,166606.0625,254835.46875,229309.953125,-0.2138671875,0.940185546875,-0.18017578125,0.0,-0.5493163466453552,0.2746581733226776,80.0,837006.0,1.0
44923.8058202,261057.03125,266988.75,277059.1875,261888.515625,244381.015625,165960.453125,254669.796875,228097.328125,-0.21533203125,0.945068359375,-0.1787109375,0.0915527269244194,-0.4272460639476776,0.3356933295726776,80.0,837007.0,1.0
44923.8135226,261501.65625,268092.75,277772.03125,262806.0,245319.265625,166432.96875,254984.6875,228544.625,-0.21240234375,0.943359375,-0.180908203125,0.03051757626235485,-0.5798339247703552,0.3356933295726776,80.0,837008.0,1.0
44923.816168,262340.8125,270202.84375,279361.9375,265353.3125,247123.671875,167358.421875,255349.734375,230019.046875,-0.2119140625,0.94482421875,-0.1806640625,0.03051757626235485,-0.6408690810203552,0.3356933295726776,80.0,837009.0,1.0
44923.8203967,262428.8125,270448.53125,279658.59375,266058.5625,247341.5625,167484.84375,255274.90625,230526.609375,-0.212158203125,0.945556640625,-0.1796875,0.03051757626235485,-0.7019042372703552,0.3051757514476776,80.0,837010.0,1.0
44923.8204409,261612.875,268415.6875,278196.8125,263854.65625,245593.640625,166589.609375,254832.34375,229290.375,-0.210205078125,0.9443359375,-0.1826171875,-0.0610351525247097,-0.6103515028953552,0.3662109076976776,80.0,837011.0,1.0
44923.8241126,261044.15625,266963.0,277036.46875,261857.9375,244353.125,165942.75,254659.34375,228069.34375,-0.210693359375,0.944580078125,-0.180908203125,-0.03051757626235485,-0.4882812201976776,0.4577636420726776,80.0,837012.0,1.0
44923.8241571,261498.703125,268070.28125,277755.65625,262779.71875,245297.796875,166421.078125,254981.921875,228520.046875,-0.21240234375,0.9453125,-0.178955078125,0.03051757626235485,-0.5798339247703552,0.4882812201976776,80.0,837013.0,1.0
44923.8372888,262350.03125,270196.125,279357.84375,265337.84375,247116.421875,167358.609375,255358.328125,230007.0625,-0.212646484375,0.94580078125,-0.178955078125,0.03051757626235485,-0.6103515028953552,0.4882812201976776,80.0,837014.0,1.0
44923.8472596,262435.5,270443.5,279652.4375,266044.4375,247333.0625,167480.015625,255274.90625,230513.015625,-0.211669921875,0.945556640625,-0.180908203125,0.0,-0.6103515028953552,0.4272460639476776,80.0,837015.0,1.0
44923.8473064,261617.796875,268407.625,278191.96875,263845.90625,245580.78125,166581.484375,254827.328125,229271.78125,-0.210205078125,0.947509765625,-0.178955078125,-0.03051757626235485,-0.5493163466453552,0.5187987685203552,80.0,837016.0,1.0
44923.8473179,261049.875,266955.84375,277034.15625,261849.453125,244344.28125,165934.796875,254657.8125,228051.109375,-0.211181640625,0.945556640625,-0.17724609375,-0.1220703050494194,-0.5798339247703552,0.4882812201976776,80.0,837017.0,1.0
44923.8503741,261503.4375,268064.03125,277752.1875,262765.40625,245289.3125,166416.4375,254980.484375,228502.25,-0.207763671875,0.946044921875,-0.179931640625,-0.1831054538488388,-0.5187987685203552,0.5493163466453552,80.0,837018.0,1.0
44923.8504194,262338.78125,270181.375,279339.875,265307.09375,247095.234375,167341.53125,255341.6875,229972.90625,-0.20703125,0.9462890625,-0.181640625,-0.2746581733226776,-0.4882812201976776,0.5493163466453552,80.0,837019.0,1.0
44923.8522931,262421.03125,270429.21875,279630.875,266011.96875,247310.078125,167460.4375,255258.09375,230476.09375,-0.207763671875,0.948486328125,-0.180908203125,-0.3356933295726776,-0.3967284858226776,0.5187987685203552,80.0,837020.0,1.0
44923.8666066,261607.6875,268392.875,278167.84375,263811.3125,245555.5625,166563.15625,254818.484375,229234.234375,-0.208984375,0.946044921875,-0.177490234375,-0.3967284858226776,-0.3662109076976776,0.5493163466453552,80.0,837021.0,1.0
44923.8666515,261042.734375,266936.625,277008.75,261811.1875,244318.796875,165916.46875,254653.890625,228014.890625,-0.20947265625,0.94677734375,-0.176025390625,-0.4272460639476776,-0.3051757514476776,0.4577636420726776,80.0,837022.0,1.0
44923.8692225,261489.21875,268039.625,277722.59375,262729.03125,245261.328125,166396.859375,254979.765625,228466.9375,-0.208251953125,0.947021484375,-0.17919921875,-0.3662109076976776,-0.2441406100988388,0.4577636420726776,80.0,837023.0,1.0
44923.8692687,262330.46875,270166.8125,279318.9375,265282.21875,247074.859375,167330.265625,255346.15625,229947.609375,-0.206298828125,0.947509765625,-0.1787109375,-0.3662109076976776,-0.1220703050494194,0.4272460639476776,80.0,837024.0,1.0
44923.8797419,262432.5625,270437.4375,279634.03125,266017.875,247314.109375,167468.3125,255275.53125,230476.359375,-0.20654296875,0.947021484375,-0.1767578125,-0.5493163466453552,0.03051757626235485,0.4272460639476776,80.0,837025.0,1.0
44923.884092,261607.15625,268392.4375,278164.0625,263813.71875,245552.796875,166559.671875,254822.78125,229228.328125,-0.207275390625,0.946533203125,-0.17724609375,-0.6408690810203552,0.0610351525247097,0.3662109076976776,80.0,837026.0,1.0
44923.8841362,261029.765625,266924.09375,276995.625,261797.328125,244304.046875,165903.421875,254648.4375,227999.96875,-0.208984375,0.946533203125,-0.18017578125,-0.6713866591453552,0.2136230319738388,0.4577636420726776,80.0,837027.0,1.0
44923.8928562,261477.875,268022.09375,277709.625,262706.15625,245239.421875,166379.515625,254967.4375,228444.765625,-0.207275390625,0.943115234375,-0.180419921875,-0.7019042372703552,0.3051757514476776,0.4272460639476776,80.0,837028.0,1.0
44923.8929005,262322.84375,270152.75,279308.65625,265259.15625,247057.328125,167316.5,255336.78125,229927.84375,-0.2080078125,0.941650390625,-0.1796875,-0.5798339247703552,0.3662109076976776,0.3662109076976776,80.0,837029.0,1.0
44923.8992115,262415.21875,270416.15625,279616.65625,265988.71875,247290.421875,167451.40625,255262.125,230449.890625,-0.212646484375,0.943115234375,-0.175537109375,-0.5493163466453552,0.3051757514476776,0.3662109076976776,80.0,837030.0,1.0
44923.8992579,261599.375,268379.90625,278154.78125,263789.03125,245536.25,166553.5,254820.359375,229210.359375,-0.212890625,0.943603515625,-0.177001953125,-0.5187987685203552,0.2746581733226776,0.3356933295726776,80.0,837031.0,1.0
44923.9054145,261029.859375,266913.90625,276984.875,261771.03125,244285.453125,165900.734375,254650.21875,227981.28125,-0.213134765625,0.943115234375,-0.17626953125,-0.5798339247703552,0.1525878757238388,0.3356933295726776,80.0,837032.0,1.0
44923.9054588,261473.21875,268003.96875,277690.03125,262661.875,245213.84375,166372.71875,254969.578125,228420.0,-0.21630859375,0.94287109375,-0.174560546875,-0.5187987685203552,0.1831054538488388,0.3662109076976776,80.0,837033.0,1.0
44923.9108079,262318.65625,270131.5625,279287.84375,265212.21875,247029.171875,167303.984375,255340.4375,229898.25,-0.2158203125,0.943603515625,-0.174560546875,-0.4882812201976776,0.1525878757238388,0.3662109076976776,80.0,837034.0,1.0
44923.9228615,262408.34375,270392.28125,279590.28125,265932.84375,247257.953125,167426.28125,255264.265625,230410.109375,-0.2177734375,0.94482421875,-0.174560546875,-0.5493163466453552,0.1525878757238388,0.4882812201976776,80.0,837035.0,1.0
44923.922906,261590.34375,268348.0,278122.21875,263722.6875,245496.734375,166521.84375,254822.328125,229162.96875,-0.21630859375,0.947265625,-0.174072265625,-0.5798339247703552,0.0610351525247097,0.6713866591453552,80.0,837036.0,1.0
44923.9255191,261019.390625,266873.3125,276946.4375,261691.203125,244232.609375,165866.84375,254652.8125,227915.03125,-0.21484375,0.946533203125,-0.1748046875,-0.5493163466453552,-0.0610351525247097,0.6408690810203552,80.0,837037.0,1.0
44923.9255642,261453.1875,267951.75,277639.34375,262574.28125,245150.28125,166328.453125,254967.078125,228337.203125,-0.214599609375,0.94384765625,-0.177490234375,-0.4882812201976776,-0.1831054538488388,0.5798339247703552,80.0,837038.0,1.0
44923.9309719,262301.5,270080.6875,279237.5,265126.9375,246970.421875,167263.296875,255336.78125,229817.78125,-0.21484375,0.94287109375,-0.18017578125,-0.3967284858226776,-0.2136230319738388,0.6713866591453552,80.0,837039.0,1.0
44923.94041,262390.8125,270339.28125,279539.78125,265846.375,247192.78125,167386.046875,255253.171875,230327.859375,-0.21435546875,0.9404296875,-0.17724609375,-0.5187987685203552,-0.2441406100988388,0.5798339247703552,80.0,837040.0,1.0
44923.9404539,261584.265625,268309.8125,278084.875,263650.28125,245441.921875,166491.171875,254813.296875,229087.328125,-0.213134765625,0.942138671875,-0.1787109375,-0.5493163466453552,-0.3967284858226776,0.4882812201976776,80.0,837041.0,1.0
44923.9428172,261014.46875,266837.1875,276910.6875,261622.703125,244179.765625,165835.28125,254645.65625,227847.25,-0.21142578125,0.94580078125,-0.17529296875,-0.4577636420726776,-0.3051757514476776,0.4272460639476776,80.0,837042.0,1.0
44923.9428617,261456.765625,267931.4375,277614.03125,262519.1875,245112.734375,166306.46875,254966.0,228286.78125,-0.210205078125,0.945556640625,-0.17431640625,-0.3662109076976776,-0.3051757514476776,0.3967284858226776,80.0,837043.0,1.0
44923.9511172,262302.28125,270072.9375,279222.75,265092.40625,246947.359375,167246.3125,255334.265625,229783.90625,-0.208984375,0.944580078125,-0.17529296875,-0.4577636420726776,-0.3051757514476776,0.3356933295726776,80.0,837044.0,1.0
44923.9535272,262395.46875,270338.375,279537.1875,265838.78125,247189.03125,167374.078125,255255.859375,230314.890625,-0.210205078125,0.944091796875,-0.177734375,-0.5187987685203552,-0.2136230319738388,0.3662109076976776,80.0,837045.0,1.0
44923.957266,261585.703125,268315.375,278085.84375,263656.53125,245446.9375,166477.953125,254814.28125,229087.59375,-0.2109375,0.943603515625,-0.176025390625,-0.4882812201976776,-0.2136230319738388,0.3356933295726776,80.0,837046.0,1.0
44923.966625,261008.03125,266838.53125,276902.71875,261607.59375,244170.296875,165812.765625,254636.984375,227832.140625,-0.2119140625,0.9423828125,-0.1748046875,-0.3967284858226776,-0.2441406100988388,0.4272460639476776,80.0,837047.0,1.0
44923.9666706,261451.140625,267920.8125,277602.25,262488.15625,245093.328125,166284.734375,254961.359375,228261.296875,-0.21240234375,0.94384765625,-0.1748046875,-0.3967284858226776,-0.3051757514476776,0.3967284858226776,80.0,837048.0,1.0
44923.968629,262298.28125,270053.875,279204.9375,265053.0625,246919.46875,167224.40625,255333.28125,229744.46875,-0.212890625,0.94287109375,-0.176025390625,-0.3356933295726776,-0.3662109076976776,0.5493163466453552,80.0,837049.0,1.0
44923.9747707,262386.96875,270316.125,279511.625,265773.875,247149.421875,167353.328125,255255.953125,230254.625,-0.2119140625,0.942626953125,-0.177734375,-0.3051757514476776,-0.2746581733226776,0.3967284858226776,80.0,837050.0,1.0
44923.9840725,261572.109375,268289.625,278055.09375,263573.84375,245400.53125,166461.40625,254816.0625,229019.5625,-0.210693359375,0.942138671875,-0.17626953125,-0.2136230319738388,-0.3356933295726776,0.3051757514476776,80.0,837051.0,1.0
44923.9841177,260993.640625,266791.59375,276861.78125,261516.234375,244113.96875,165787.28125,254634.65625,227751.6875,-0.21044921875,0.940673828125,-0.17529296875,-0.2441406100988388,-0.3662109076976776,0.3051757514476776,80.0,837052.0,1.0
44923.9859028,261441.390625,267873.25,277558.25,262403.40625,245036.828125,166252.375,254952.140625,228174.578125,-0.21142578125,0.9423828125,-0.17431640625,-0.1831054538488388,-0.3967284858226776,0.3967284858226776,80.0,837053.0,1.0
44923.9924417,262285.9375,270009.8125,279164.4375,264982.0,246873.328125,167187.296875,255320.0625,229673.484375,-0.21240234375,0.945556640625,-0.17578125,-0.0915527269244194,-0.3967284858226776,0.4882812201976776,80.0,837054.0,1.0
44923.9966003,262391.6875,270297.875,279495.34375,265750.625,247132.875,167328.828125,255249.15625,230219.484375,-0.2109375,0.9453125,-0.175537109375,-0.0610351525247097,-0.4577636420726776,0.4577636420726776,80.0,837055.0,1.0
44923.9966444,261582.296875,268280.9375,278049.375,263586.53125,245401.421875,166436.1875,254806.6875,229005.609375,-0.213134765625,0.946533203125,-0.176513671875,0.0,-0.5187987685203552,0.4272460639476776,80.0,837056.0,1.0
44923.9985297,260999.28125,266794.28125,276866.6875,261551.359375,244131.84375,165774.40625,254630.453125,227766.609375,-0.211669921875,0.9482421875,-0.1767578125,0.03051757626235485,-0.4882812201976776,0.2441406100988388,80.0,837057.0,1.0
44924.0128397,261446.046875,267895.59375,277578.71875,262460.46875,245075.453125,166251.484375,254958.21875,228218.828125,-0.2119140625,0.94775390625,-0.174560546875,0.0610351525247097,-0.4577636420726776,0.3662109076976776,80.0,837058.0,1.0
44924.0128831,262311.875,270066.84375,279215.0625,265077.125,246943.25,167214.578125,255347.5,229749.5625,-0.211669921875,0.94580078125,-0.17529296875,-0.03051757626235485,-0.5187987685203552,0.3051757514476776,80.0,837059.0,1.0
44924.0148567,262427.28125,270370.1875,279559.375,265866.0625,247217.546875,167372.828125,255286.53125,230313.1875,-0.2099609375,0.94384765625,-0.175537109375,0.0915527269244194,-0.5493163466453552,0.4882812201976776,80.0,837060.0,1.0
44924.0171278,261619.84375,268361.125,278119.625,263705.28125,245490.46875,166490.640625,254846.90625,229113.4375,-0.2119140625,0.9453125,-0.17626953125,0.0,-0.4882812201976776,0.3967284858226776,80.0,837061.0,1.0
44924.0247777,261025.203125,266856.96875,276919.96875,261648.015625,244198.984375,165814.453125,254649.953125,227848.421875,-0.212890625,0.94482421875,-0.174560546875,-0.03051757626235485,-0.4272460639476776,0.4577636420726776,80.0,837062.0,1.0
44924.0272124,261455.078125,267932.59375,277612.625,262531.8125,245120.5,166281.703125,254961.796875,228278.734375,-0.21142578125,0.94384765625,-0.173828125,0.0,-0.4577636420726776,0.3967284858226776,80.0,837063.0,1.0
44924.0310756,262312.21875,270089.1875,279239.46875,265135.34375,246978.828125,167238.984375,255341.78125,229802.859375,-0.2099609375,0.944091796875,-0.177734375,-0.03051757626235485,-0.5798339247703552,0.3967284858226776,80.0,837064.0,1.0
44924.0404535,262425.21875,270391.46875,279581.53125,265917.46875,247248.125,167390.515625,255276.25,230361.203125,-0.21142578125,0.944580078125,-0.177001953125,0.03051757626235485,-0.6103515028953552,0.4272460639476776,80.0,837065.0,1.0
44924.0404985,261616.1875,268379.09375,278141.375,263752.65625,245517.390625,166505.125,254836.0,229153.046875,-0.212158203125,0.9443359375,-0.1767578125,0.03051757626235485,-0.6408690810203552,0.4882812201976776,80.0,837066.0,1.0
44924.0428563,261027.265625,266877.4375,276946.96875,261689.9375,244232.0625,165835.015625,254652.28125,227899.203125,-0.21240234375,0.945068359375,-0.177978515625,0.0610351525247097,-0.6713866591453552,0.4882812201976776,80.0,837067.0,1.0
44924.0429007,261468.390625,267964.875,277648.28125,262581.5,245165.03125,166311.921875,254977.359375,228343.46875,-0.210205078125,0.945556640625,-0.17724609375,0.03051757626235485,-0.6103515028953552,0.3662109076976776,80.0,837068.0,1.0
44924.0510128,262332.25,270131.46875,279280.5,265194.53125,247028.453125,167274.03125,255363.421875,229868.484375,-0.20751953125,0.946044921875,-0.177001953125,-0.03051757626235485,-0.5493163466453552,0.3967284858226776,80.0,837069.0,1.0
44924.0536306,262444.8125,270433.40625,279624.0,265984.25,247303.5625,167430.484375,255301.09375,230433.171875,-0.20947265625,0.945068359375,-0.1767578125,-0.03051757626235485,-0.5187987685203552,0.3967284858226776,80.0,837070.0,1.0
44924.0572482,261618.59375,268410.40625,278170.25,263808.1875,245563.703125,166537.671875,254853.96875,229219.46875,-0.20751953125,0.9443359375,-0.177734375,0.03051757626235485,-0.4882812201976776,0.4272460639476776,80.0,837071.0,1.0
44924.0616041,261031.375,266914.25,276978.28125,261754.046875,244278.921875,165864.796875,254669.984375,227966.890625,-0.209228515625,0.942626953125,-0.17919921875,0.03051757626235485,-0.4272460639476776,0.3662109076976776,80.0,837072.0,1.0
44924.061648,261469.640625,267996.34375,277677.875,262642.9375,245208.390625,166332.921875,254993.09375,228403.640625,-0.2080078125,0.94287109375,-0.180908203125,0.1831054538488388,-0.3662109076976776,0.3662109076976776,80.0,837073.0,1.0
44924.0747863,262327.5,270156.59375,279303.375,265252.90625,247066.359375,167281.625,255370.03125,229922.390625,-0.20703125,0.9404296875,-0.183837890625,0.1831054538488388,-0.1831054538488388,0.4577636420726776,80.0,837074.0,1.0
44924.0805106,262431.03125,270444.125,279637.6875,266031.71875,247329.21875,167419.84375,255289.75,230474.921875,-0.207763671875,0.93994140625,-0.181884765625,0.3356933295726776,-0.2746581733226776,0.4882812201976776,80.0,837075.0,1.0
44924.0805556,261619.5,268429.53125,278194.84375,263869.15625,245597.21875,166531.328125,254842.796875,229267.046875,-0.2080078125,0.939453125,-0.18017578125,0.3356933295726776,-0.1525878757238388,0.4272460639476776,80.0,837076.0,1.0
44924.0822797,261042.546875,266945.46875,277011.25,261823.515625,244319.859375,165869.4375,254662.90625,228023.03125,-0.2080078125,0.94091796875,-0.177490234375,0.4272460639476776,-0.1831054538488388,0.4577636420726776,80.0,837077.0,1.0
44924.0847775,261482.703125,268028.71875,277712.21875,262706.6875,245245.859375,166342.859375,254985.21875,228461.75,-0.2080078125,0.942138671875,-0.176513671875,0.4577636420726776,-0.1831054538488388,0.3967284858226776,80.0,837078.0,1.0
44924.0885358,262344.125,270185.40625,279340.84375,265313.96875,247103.015625,167296.828125,255365.296875,229982.296875,-0.209228515625,0.94091796875,-0.1748046875,0.5798339247703552,-0.1525878757238388,0.3967284858226776,80.0,837079.0,1.0
44924.0979208,262448.90625,270482.5,279678.28125,266092.15625,247369.359375,167445.6875,255290.734375,230536.890625,-0.211181640625,0.940673828125,-0.177490234375,0.6408690810203552,-0.0610351525247097,0.4272460639476776,80.0,837080.0,1.0
44924.097966,261633.890625,268463.5,278229.0,263918.59375,245629.5,166556.625,254845.484375,229323.984375,-0.210205078125,0.94189453125,-0.17919921875,0.5798339247703552,-0.0610351525247097,0.4882812201976776,80.0,837081.0,1.0
44924.099781,261049.078125,266956.90625,277031.46875,261856.328125,244335.78125,165880.265625,254659.6875,228061.921875,-0.211181640625,0.943603515625,-0.17919921875,0.6103515028953552,0.0,0.3967284858226776,80.0,837082.0,1.0
44924.1085017,261491.640625,268032.5625,277727.5,262727.15625,245256.578125,166346.421875,254981.828125,228490.0,-0.211669921875,0.94384765625,-0.18017578125,0.6103515028953552,0.0610351525247097,0.2746581733226776,80.0,837083.0,1.0
44924.1234943,262347.53125,270191.03125,279348.0,265319.0625,247105.78125,167297.984375,255363.15625,230001.875,-0.211181640625,0.943115234375,-0.18408203125,0.7019042372703552,0.0610351525247097,0.3356933295726776,80.0,837084.0,1.0
44924.1235384,262447.84375,270485.1875,279678.4375,266091.0,247368.5625,167441.484375,255288.3125,230549.40625,-0.21044921875,0.944580078125,-0.18212890625,0.8239745497703552,0.0,0.5187987685203552,80.0,837085.0,1.0
44924.1235502,261646.5,268475.40625,278239.09375,263925.9375,245639.421875,166557.875,254850.046875,229341.96875,-0.21240234375,0.946044921875,-0.180908203125,0.7934569716453552,-0.03051757626235485,0.3662109076976776,80.0,837086.0,1.0
44924.1265214,261064.8125,266973.1875,277042.8125,261866.4375,244349.546875,165886.15625,254665.953125,228082.390625,-0.21142578125,0.94677734375,-0.181640625,0.6713866591453552,0.0610351525247097,0.2746581733226776,80.0,837087.0,1.0
44924.126567,261488.59375,268038.46875,277724.375,262730.28125,245254.890625,166345.359375,254973.78125,228498.59375,-0.2119140625,0.948974609375,-0.181640625,0.7019042372703552,0.0,0.3051757514476776,80.0,837088.0,1.0
44924.1322863,262338.15625,270187.71875,279340.125,265317.46875,247097.921875,167290.390625,255350.1875,230000.265625,-0.21337890625,0.950439453125,-0.181396484375,0.5493163466453552,-0.0610351525247097,0.3662109076976776,80.0,837089.0,1.0
44924.1347685,262445.4375,270486.15625,279680.875,266106.84375,247370.609375,167436.84375,255281.25,230555.84375,-0.2138671875,0.94921875,-0.180908203125,0.4577636420726776,-0.0610351525247097,0.3967284858226776,80.0,837090.0,1.0
44924.1372852,261643.0,268478.625,278244.71875,263947.46875,245646.578125,166560.203125,254847.71875,229352.78125,-0.214111328125,0.94775390625,-0.182861328125,0.4577636420726776,-0.0915527269244194,0.4272460639476776,80.0,837091.0,1.0
44924.1410773,261060.15625,266977.375,277053.375,261892.09375,244358.578125,165891.34375,254664.078125,228095.890625,-0.214111328125,0.947998046875,-0.18212890625,0.3356933295726776,-0.2746581733226776,0.3356933295726776,80.0,837092.0,1.0
44924.1528813,261485.375,268041.5,277733.03125,262755.9375,245264.625,166345.09375,254972.078125,228511.109375,-0.215087890625,0.9462890625,-0.180908203125,0.2136230319738388,-0.3356933295726776,0.1831054538488388,80.0,837093.0,1.0
44924.1529252,262346.5625,270203.09375,279359.96875,265355.90625,247122.59375,167300.3125,255356.71875,230025.203125,-0.2138671875,0.9443359375,-0.1796875,0.0610351525247097,-0.4577636420726776,0.1525878757238388,80.0,837094.0,1.0
44924.1554421,262463.59375,270520.5,279712.5,266158.6875,247407.0,167454.8125,255292.078125,230591.15625,-0.2138671875,0.940185546875,-0.181396484375,-0.0610351525247097,-0.5798339247703552,0.0915527269244194,80.0,837095.0,1.0
44924.1554859,261651.59375,268510.0,278270.65625,264001.03125,245678.234375,166568.15625,254848.96875,229384.875,-0.215087890625,0.93505859375,-0.18212890625,0.0610351525247097,-0.5187987685203552,0.0610351525247097,80.0,837096.0,1.0
44924.1635349,261059.359375,267006.1875,277070.0,261940.90625,244387.453125,165894.46875,254660.40625,228130.140625,-0.21728515625,0.934326171875,-0.18359375,0.0915527269244194,-0.6408690810203552,0.0610351525247097,80.0,837097.0,1.0
44924.1661676,261495.84375,268080.5,277764.78125,262825.3125,245311.03125,166367.890625,254982.984375,228568.5,-0.216552734375,0.936767578125,-0.189697265625,0.3051757514476776,-0.6713866591453552,0.1831054538488388,80.0,837098.0,1.0
44924.1722212,262349.84375,270236.53125,279388.15625,265418.3125,247167.75,167320.703125,255362.078125,230088.875,-0.215576171875,0.940185546875,-0.189208984375,0.4882812201976776,-0.7629393935203552,0.1220703050494194,80.0,837099.0,1.0
44924.1791075,262465.625,270560.90625,279745.96875,266236.8125,247463.140625,167480.90625,255300.125,230672.875,-0.214111328125,0.942626953125,-0.184814453125,0.6103515028953552,-0.8239745497703552,0.03051757626235485,80.0,837100.0,1.0
44924.1791512,261657.9375,268562.65625,278318.21875,264102.3125,245751.265625,166601.5,254861.125,229490.109375,-0.2138671875,0.94287109375,-0.1845703125,0.7324218153953552,-0.9155272841453552,0.03051757626235485,80.0,837101.0,1.0
44924.1816064,261068.03125,267062.78125,277127.3125,262061.96875,244472.484375,165927.015625,254675.4375,228252.09375,-0.214599609375,0.94091796875,-0.183837890625,0.6103515028953552,-0.9155272841453552,0.1525878757238388,80.0,837102.0,1.0
44924.1816512,261513.71875,268153.71875,277836.125,262975.25,245416.4375,166408.484375,255000.6875,228714.59375,-0.215087890625,0.944580078125,-0.18017578125,0.6408690810203552,-1.0681151151657104,0.0915527269244194,80.0,837103.0,1.0
44924.2109489,262372.75,270322.0,279469.0625,265594.0,247280.046875,167368.4375,255382.640625,230247.921875,-0.216064453125,0.9443359375,-0.183837890625,0.5493163466453552,-1.0375975370407104,0.0610351525247097,80.0,837104.0,1.0
44924.2135277,262475.375,270629.21875,279815.0625,266386.21875,247555.0625,167518.375,255311.375,230812.890625,-0.21826171875,0.947509765625,-0.185791015625,0.4272460639476776,-1.1596678495407104,0.0610351525247097,80.0,837105.0,1.0
44924.2159816,261667.421875,268628.375,278381.4375,264237.25,245836.203125,166642.015625,254872.21875,229621.625,-0.218505859375,0.949462890625,-0.18115234375,0.3662109076976776,-1.1596678495407104,-0.0915527269244194,80.0,837106.0,1.0
44924.2184263,261080.71875,267130.28125,277187.65625,262184.09375,244550.890625,165977.625,254687.328125,228376.71875,-0.218017578125,0.950927734375,-0.180908203125,0.1525878757238388,-1.3427733182907104,-0.0915527269244194,80.0,837107.0,1.0
44924.2208723,261518.015625,268197.6875,277881.46875,263062.78125,245468.203125,166442.546875,255003.109375,228811.515625,-0.2158203125,0.95166015625,-0.1767578125,0.03051757626235485,-1.4648436307907104,-0.0915527269244194,80.0,837108.0,1.0
44924.2233472,262372.9375,270349.375,279501.15625,265652.09375,247315.1875,167385.609375,255376.203125,230318.828125,-0.214111328125,0.951416015625,-0.181396484375,0.03051757626235485,-1.4038084745407104,-0.1525878757238388,80.0,837109.0,1.0
44924.2257535,262481.46875,270659.96875,279851.71875,266454.25,247600.296875,167541.796875,255305.75,230885.125,-0.212646484375,0.950927734375,-0.17919921875,-0.0610351525247097,-1.3732908964157104,-0.1831054538488388,80.0,837110.0,1.0
44924.233505,261676.265625,268669.15625,278428.90625,264324.0625,245897.625,166677.140625,254873.203125,229706.03125,-0.213134765625,0.9521484375,-0.175048828125,-0.2746581733226776,-1.4343260526657104,-0.0915527269244194,80.0,837111.0,1.0
44924.2361721,261095.296875,267172.03125,277238.90625,262282.96875,244619.46875,166016.96875,254693.9375,228472.65625,-0.21240234375,0.953369140625,-0.177978515625,-0.3967284858226776,-1.3732908964157104,0.0610351525247097,80.0,837112.0,1.0
44924.2384977,261530.890625,268247.21875,277930.625,263156.3125,245540.453125,166485.453125,255014.109375,228907.171875,-0.211181640625,0.95263671875,-0.180419921875,-0.5798339247703552,-1.4343260526657104,0.1220703050494194,80.0,837113.0,1.0
44924.2410264,262381.96875,270401.59375,279550.6875,265743.5625,247387.15625,167434.953125,255391.40625,230413.953125,-0.2119140625,0.953125,-0.180419921875,-0.7019042372703552,-1.4343260526657104,0.1831054538488388,80.0,837114.0,1.0
44924.2441003,262500.0625,270713.96875,279906.34375,266546.625,247671.46875,167595.53125,255327.921875,230984.546875,-0.2119140625,0.948974609375,-0.180908203125,-0.8544921278953552,-1.4038084745407104,0.3662109076976776,80.0,837115.0,1.0
44924.2441428,261708.453125,268732.34375,278491.46875,264420.15625,245971.03125,166734.8125,254900.921875,229808.125,-0.211669921875,0.94677734375,-0.17919921875,-0.8544921278953552,-1.3427733182907104,0.4577636420726776,80.0,837116.0,1.0
44924.2460081,261116.125,267222.375,277289.84375,262361.03125,244679.8125,166062.828125,254709.859375,228558.125,-0.2109375,0.947509765625,-0.181884765625,-0.8239745497703552,-1.3122557401657104,0.6408690810203552,80.0,837117.0,1.0
44924.2491202,261539.296875,268278.6875,277966.21875,263215.40625,245581.578125,166518.359375,255019.46875,228976.5625,-0.20947265625,0.9462890625,-0.17822265625,-0.9765624403953552,-1.3427733182907104,0.7019042372703552,80.0,837118.0,1.0
44924.249164,262379.90625,270413.03125,279569.03125,265770.46875,247406.375,167454.8125,255387.015625,230459.734375,-0.20849609375,0.943603515625,-0.177001953125,-1.0986326932907104,-1.1901854276657104,0.7934569716453552,80.0,837119.0,1.0
44924.2622131,262489.96875,270718.4375,279911.53125,266552.6875,247672.8125,167602.59375,255318.71875,231004.21875,-0.20849609375,0.94140625,-0.17919921875,-1.0681151151657104,-1.0681151151657104,0.8239745497703552,80.0,837120.0,1.0
